#Created as New Dataset	Sample 000 By PEService Date Tuesday	 April 30 2013
#cm-1	%T
4000.00	99.80
3999.00	99.81
3998.00	99.81
3997.00	99.82
3996.00	99.83
3995.00	99.84
3994.00	99.84
3993.00	99.84
3992.00	99.84
3991.00	99.84
3990.00	99.83
3989.00	99.83
3988.00	99.83
3987.00	99.83
3986.00	99.83
3985.00	99.84
3984.00	99.84
3983.00	99.83
3982.00	99.82
3981.00	99.81
3980.00	99.81
3979.00	99.81
3978.00	99.81
3977.00	99.81
3976.00	99.82
3975.00	99.82
3974.00	99.82
3973.00	99.82
3972.00	99.82
3971.00	99.82
3970.00	99.82
3969.00	99.83
3968.00	99.83
3967.00	99.84
3966.00	99.84
3965.00	99.85
3964.00	99.84
3963.00	99.84
3962.00	99.83
3961.00	99.83
3960.00	99.83
3959.00	99.83
3958.00	99.83
3957.00	99.82
3956.00	99.82
3955.00	99.81
3954.00	99.81
3953.00	99.80
3952.00	99.80
3951.00	99.80
3950.00	99.81
3949.00	99.82
3948.00	99.83
3947.00	99.83
3946.00	99.83
3945.00	99.83
3944.00	99.82
3943.00	99.83
3942.00	99.83
3941.00	99.84
3940.00	99.85
3939.00	99.85
3938.00	99.85
3937.00	99.85
3936.00	99.85
3935.00	99.84
3934.00	99.83
3933.00	99.82
3932.00	99.80
3931.00	99.80
3930.00	99.80
3929.00	99.80
3928.00	99.81
3927.00	99.81
3926.00	99.81
3925.00	99.81
3924.00	99.81
3923.00	99.82
3922.00	99.82
3921.00	99.82
3920.00	99.83
3919.00	99.84
3918.00	99.84
3917.00	99.84
3916.00	99.84
3915.00	99.84
3914.00	99.84
3913.00	99.83
3912.00	99.82
3911.00	99.81
3910.00	99.80
3909.00	99.80
3908.00	99.80
3907.00	99.81
3906.00	99.81
3905.00	99.81
3904.00	99.81
3903.00	99.82
3902.00	99.83
3901.00	99.84
3900.00	99.85
3899.00	99.85
3898.00	99.84
3897.00	99.83
3896.00	99.83
3895.00	99.83
3894.00	99.83
3893.00	99.84
3892.00	99.85
3891.00	99.86
3890.00	99.86
3889.00	99.86
3888.00	99.85
3887.00	99.85
3886.00	99.85
3885.00	99.85
3884.00	99.85
3883.00	99.85
3882.00	99.86
3881.00	99.86
3880.00	99.86
3879.00	99.86
3878.00	99.86
3877.00	99.85
3876.00	99.84
3875.00	99.84
3874.00	99.83
3873.00	99.83
3872.00	99.84
3871.00	99.85
3870.00	99.87
3869.00	99.88
3868.00	99.89
3867.00	99.88
3866.00	99.87
3865.00	99.86
3864.00	99.85
3863.00	99.84
3862.00	99.84
3861.00	99.84
3860.00	99.84
3859.00	99.84
3858.00	99.84
3857.00	99.84
3856.00	99.84
3855.00	99.84
3854.00	99.84
3853.00	99.84
3852.00	99.84
3851.00	99.84
3850.00	99.84
3849.00	99.85
3848.00	99.85
3847.00	99.86
3846.00	99.86
3845.00	99.85
3844.00	99.84
3843.00	99.83
3842.00	99.83
3841.00	99.83
3840.00	99.84
3839.00	99.85
3838.00	99.85
3837.00	99.85
3836.00	99.85
3835.00	99.85
3834.00	99.86
3833.00	99.86
3832.00	99.87
3831.00	99.87
3830.00	99.87
3829.00	99.87
3828.00	99.86
3827.00	99.86
3826.00	99.85
3825.00	99.85
3824.00	99.84
3823.00	99.84
3822.00	99.84
3821.00	99.84
3820.00	99.84
3819.00	99.84
3818.00	99.84
3817.00	99.84
3816.00	99.85
3815.00	99.85
3814.00	99.85
3813.00	99.85
3812.00	99.85
3811.00	99.84
3810.00	99.84
3809.00	99.84
3808.00	99.85
3807.00	99.85
3806.00	99.85
3805.00	99.85
3804.00	99.85
3803.00	99.85
3802.00	99.85
3801.00	99.85
3800.00	99.84
3799.00	99.84
3798.00	99.84
3797.00	99.84
3796.00	99.84
3795.00	99.83
3794.00	99.83
3793.00	99.83
3792.00	99.83
3791.00	99.83
3790.00	99.83
3789.00	99.83
3788.00	99.83
3787.00	99.83
3786.00	99.83
3785.00	99.83
3784.00	99.83
3783.00	99.84
3782.00	99.84
3781.00	99.84
3780.00	99.84
3779.00	99.85
3778.00	99.85
3777.00	99.85
3776.00	99.85
3775.00	99.85
3774.00	99.85
3773.00	99.84
3772.00	99.84
3771.00	99.83
3770.00	99.83
3769.00	99.83
3768.00	99.82
3767.00	99.82
3766.00	99.81
3765.00	99.80
3764.00	99.80
3763.00	99.80
3762.00	99.81
3761.00	99.82
3760.00	99.82
3759.00	99.83
3758.00	99.83
3757.00	99.82
3756.00	99.82
3755.00	99.82
3754.00	99.82
3753.00	99.83
3752.00	99.84
3751.00	99.84
3750.00	99.85
3749.00	99.85
3748.00	99.84
3747.00	99.83
3746.00	99.83
3745.00	99.82
3744.00	99.81
3743.00	99.81
3742.00	99.81
3741.00	99.82
3740.00	99.83
3739.00	99.83
3738.00	99.83
3737.00	99.83
3736.00	99.82
3735.00	99.81
3734.00	99.81
3733.00	99.81
3732.00	99.80
3731.00	99.80
3730.00	99.80
3729.00	99.80
3728.00	99.80
3727.00	99.80
3726.00	99.80
3725.00	99.80
3724.00	99.79
3723.00	99.78
3722.00	99.77
3721.00	99.77
3720.00	99.77
3719.00	99.77
3718.00	99.77
3717.00	99.78
3716.00	99.78
3715.00	99.78
3714.00	99.78
3713.00	99.78
3712.00	99.78
3711.00	99.78
3710.00	99.78
3709.00	99.78
3708.00	99.78
3707.00	99.79
3706.00	99.79
3705.00	99.78
3704.00	99.78
3703.00	99.78
3702.00	99.78
3701.00	99.78
3700.00	99.77
3699.00	99.76
3698.00	99.75
3697.00	99.75
3696.00	99.76
3695.00	99.76
3694.00	99.77
3693.00	99.78
3692.00	99.78
3691.00	99.78
3690.00	99.78
3689.00	99.78
3688.00	99.78
3687.00	99.77
3686.00	99.76
3685.00	99.74
3684.00	99.73
3683.00	99.72
3682.00	99.71
3681.00	99.71
3680.00	99.71
3679.00	99.72
3678.00	99.72
3677.00	99.72
3676.00	99.71
3675.00	99.71
3674.00	99.70
3673.00	99.70
3672.00	99.69
3671.00	99.68
3670.00	99.67
3669.00	99.66
3668.00	99.66
3667.00	99.65
3666.00	99.64
3665.00	99.63
3664.00	99.62
3663.00	99.61
3662.00	99.60
3661.00	99.59
3660.00	99.59
3659.00	99.59
3658.00	99.58
3657.00	99.57
3656.00	99.55
3655.00	99.53
3654.00	99.52
3653.00	99.51
3652.00	99.50
3651.00	99.50
3650.00	99.50
3649.00	99.50
3648.00	99.49
3647.00	99.48
3646.00	99.46
3645.00	99.44
3644.00	99.42
3643.00	99.41
3642.00	99.40
3641.00	99.39
3640.00	99.38
3639.00	99.37
3638.00	99.36
3637.00	99.35
3636.00	99.34
3635.00	99.33
3634.00	99.31
3633.00	99.30
3632.00	99.28
3631.00	99.25
3630.00	99.23
3629.00	99.21
3628.00	99.20
3627.00	99.19
3626.00	99.18
3625.00	99.17
3624.00	99.16
3623.00	99.15
3622.00	99.14
3621.00	99.12
3620.00	99.11
3619.00	99.08
3618.00	99.06
3617.00	99.04
3616.00	99.02
3615.00	99.00
3614.00	99.00
3613.00	98.99
3612.00	98.98
3611.00	98.97
3610.00	98.95
3609.00	98.92
3608.00	98.90
3607.00	98.87
3606.00	98.85
3605.00	98.83
3604.00	98.80
3603.00	98.78
3602.00	98.76
3601.00	98.74
3600.00	98.73
3599.00	98.70
3598.00	98.68
3597.00	98.65
3596.00	98.63
3595.00	98.60
3594.00	98.59
3593.00	98.57
3592.00	98.57
3591.00	98.56
3590.00	98.54
3589.00	98.53
3588.00	98.50
3587.00	98.48
3586.00	98.46
3585.00	98.43
3584.00	98.41
3583.00	98.38
3582.00	98.35
3581.00	98.32
3580.00	98.29
3579.00	98.27
3578.00	98.24
3577.00	98.22
3576.00	98.19
3575.00	98.16
3574.00	98.13
3573.00	98.11
3572.00	98.10
3571.00	98.08
3570.00	98.06
3569.00	98.04
3568.00	98.02
3567.00	98.00
3566.00	97.97
3565.00	97.94
3564.00	97.91
3563.00	97.89
3562.00	97.86
3561.00	97.84
3560.00	97.81
3559.00	97.78
3558.00	97.75
3557.00	97.72
3556.00	97.69
3555.00	97.66
3554.00	97.63
3553.00	97.60
3552.00	97.57
3551.00	97.53
3550.00	97.50
3549.00	97.46
3548.00	97.43
3547.00	97.41
3546.00	97.38
3545.00	97.35
3544.00	97.32
3543.00	97.29
3542.00	97.27
3541.00	97.24
3540.00	97.21
3539.00	97.18
3538.00	97.15
3537.00	97.12
3536.00	97.08
3535.00	97.05
3534.00	97.01
3533.00	96.98
3532.00	96.94
3531.00	96.91
3530.00	96.88
3529.00	96.84
3528.00	96.81
3527.00	96.77
3526.00	96.74
3525.00	96.71
3524.00	96.67
3523.00	96.64
3522.00	96.61
3521.00	96.57
3520.00	96.53
3519.00	96.50
3518.00	96.47
3517.00	96.44
3516.00	96.42
3515.00	96.39
3514.00	96.36
3513.00	96.32
3512.00	96.28
3511.00	96.24
3510.00	96.20
3509.00	96.16
3508.00	96.12
3507.00	96.09
3506.00	96.06
3505.00	96.04
3504.00	96.01
3503.00	95.98
3502.00	95.95
3501.00	95.91
3500.00	95.87
3499.00	95.83
3498.00	95.80
3497.00	95.76
3496.00	95.72
3495.00	95.68
3494.00	95.64
3493.00	95.60
3492.00	95.57
3491.00	95.54
3490.00	95.51
3489.00	95.48
3488.00	95.45
3487.00	95.41
3486.00	95.37
3485.00	95.33
3484.00	95.30
3483.00	95.27
3482.00	95.24
3481.00	95.21
3480.00	95.18
3479.00	95.14
3478.00	95.11
3477.00	95.07
3476.00	95.03
3475.00	94.99
3474.00	94.96
3473.00	94.93
3472.00	94.91
3471.00	94.89
3470.00	94.87
3469.00	94.85
3468.00	94.82
3467.00	94.78
3466.00	94.73
3465.00	94.68
3464.00	94.63
3463.00	94.58
3462.00	94.54
3461.00	94.52
3460.00	94.50
3459.00	94.47
3458.00	94.44
3457.00	94.40
3456.00	94.36
3455.00	94.32
3454.00	94.28
3453.00	94.24
3452.00	94.20
3451.00	94.17
3450.00	94.14
3449.00	94.12
3448.00	94.10
3447.00	94.09
3446.00	94.07
3445.00	94.03
3444.00	93.99
3443.00	93.93
3442.00	93.89
3441.00	93.85
3440.00	93.83
3439.00	93.81
3438.00	93.81
3437.00	93.79
3436.00	93.77
3435.00	93.74
3434.00	93.70
3433.00	93.66
3432.00	93.62
3431.00	93.59
3430.00	93.57
3429.00	93.54
3428.00	93.50
3427.00	93.46
3426.00	93.43
3425.00	93.40
3424.00	93.37
3423.00	93.34
3422.00	93.31
3421.00	93.28
3420.00	93.24
3419.00	93.20
3418.00	93.17
3417.00	93.14
3416.00	93.11
3415.00	93.09
3414.00	93.08
3413.00	93.06
3412.00	93.04
3411.00	93.02
3410.00	92.99
3409.00	92.97
3408.00	92.94
3407.00	92.90
3406.00	92.86
3405.00	92.84
3404.00	92.83
3403.00	92.85
3402.00	92.87
3401.00	92.89
3400.00	92.88
3399.00	92.84
3398.00	92.78
3397.00	92.72
3396.00	92.67
3395.00	92.64
3394.00	92.61
3393.00	92.59
3392.00	92.58
3391.00	92.56
3390.00	92.53
3389.00	92.50
3388.00	92.47
3387.00	92.44
3386.00	92.40
3385.00	92.37
3384.00	92.34
3383.00	92.32
3382.00	92.32
3381.00	92.32
3380.00	92.34
3379.00	92.34
3378.00	92.33
3377.00	92.30
3376.00	92.26
3375.00	92.22
3374.00	92.19
3373.00	92.18
3372.00	92.17
3371.00	92.17
3370.00	92.17
3369.00	92.16
3368.00	92.15
3367.00	92.12
3366.00	92.08
3365.00	92.05
3364.00	92.02
3363.00	91.99
3362.00	91.97
3361.00	91.95
3360.00	91.93
3359.00	91.92
3358.00	91.92
3357.00	91.91
3356.00	91.91
3355.00	91.90
3354.00	91.89
3353.00	91.88
3352.00	91.87
3351.00	91.86
3350.00	91.85
3349.00	91.82
3348.00	91.79
3347.00	91.75
3346.00	91.73
3345.00	91.71
3344.00	91.69
3343.00	91.69
3342.00	91.68
3341.00	91.67
3340.00	91.65
3339.00	91.62
3338.00	91.59
3337.00	91.56
3336.00	91.54
3335.00	91.54
3334.00	91.55
3333.00	91.56
3332.00	91.56
3331.00	91.56
3330.00	91.56
3329.00	91.56
3328.00	91.55
3327.00	91.53
3326.00	91.52
3325.00	91.50
3324.00	91.49
3323.00	91.48
3322.00	91.48
3321.00	91.48
3320.00	91.48
3319.00	91.47
3318.00	91.44
3317.00	91.40
3316.00	91.36
3315.00	91.33
3314.00	91.33
3313.00	91.35
3312.00	91.37
3311.00	91.39
3310.00	91.41
3309.00	91.42
3308.00	91.42
3307.00	91.41
3306.00	91.40
3305.00	91.39
3304.00	91.39
3303.00	91.40
3302.00	91.40
3301.00	91.40
3300.00	91.41
3299.00	91.41
3298.00	91.42
3297.00	91.42
3296.00	91.40
3295.00	91.38
3294.00	91.36
3293.00	91.34
3292.00	91.34
3291.00	91.34
3290.00	91.34
3289.00	91.34
3288.00	91.33
3287.00	91.32
3286.00	91.32
3285.00	91.32
3284.00	91.34
3283.00	91.36
3282.00	91.37
3281.00	91.38
3280.00	91.37
3279.00	91.37
3278.00	91.36
3277.00	91.38
3276.00	91.40
3275.00	91.43
3274.00	91.46
3273.00	91.48
3272.00	91.47
3271.00	91.46
3270.00	91.44
3269.00	91.42
3268.00	91.41
3267.00	91.40
3266.00	91.39
3265.00	91.40
3264.00	91.41
3263.00	91.42
3262.00	91.44
3261.00	91.45
3260.00	91.45
3259.00	91.45
3258.00	91.45
3257.00	91.45
3256.00	91.47
3255.00	91.50
3254.00	91.54
3253.00	91.58
3252.00	91.62
3251.00	91.63
3250.00	91.62
3249.00	91.61
3248.00	91.60
3247.00	91.59
3246.00	91.59
3245.00	91.60
3244.00	91.61
3243.00	91.62
3242.00	91.62
3241.00	91.63
3240.00	91.63
3239.00	91.62
3238.00	91.62
3237.00	91.63
3236.00	91.63
3235.00	91.64
3234.00	91.66
3233.00	91.69
3232.00	91.73
3231.00	91.76
3230.00	91.78
3229.00	91.80
3228.00	91.80
3227.00	91.80
3226.00	91.80
3225.00	91.80
3224.00	91.81
3223.00	91.82
3222.00	91.83
3221.00	91.84
3220.00	91.85
3219.00	91.86
3218.00	91.86
3217.00	91.87
3216.00	91.88
3215.00	91.90
3214.00	91.90
3213.00	91.90
3212.00	91.89
3211.00	91.89
3210.00	91.91
3209.00	91.93
3208.00	91.96
3207.00	91.99
3206.00	92.01
3205.00	92.03
3204.00	92.04
3203.00	92.06
3202.00	92.06
3201.00	92.07
3200.00	92.07
3199.00	92.08
3198.00	92.08
3197.00	92.10
3196.00	92.11
3195.00	92.13
3194.00	92.15
3193.00	92.17
3192.00	92.17
3191.00	92.17
3190.00	92.16
3189.00	92.15
3188.00	92.16
3187.00	92.19
3186.00	92.22
3185.00	92.25
3184.00	92.28
3183.00	92.29
3182.00	92.30
3181.00	92.31
3180.00	92.32
3179.00	92.32
3178.00	92.33
3177.00	92.35
3176.00	92.37
3175.00	92.39
3174.00	92.42
3173.00	92.43
3172.00	92.45
3171.00	92.45
3170.00	92.45
3169.00	92.44
3168.00	92.43
3167.00	92.43
3166.00	92.44
3165.00	92.47
3164.00	92.50
3163.00	92.53
3162.00	92.55
3161.00	92.55
3160.00	92.56
3159.00	92.57
3158.00	92.58
3157.00	92.60
3156.00	92.64
3155.00	92.67
3154.00	92.70
3153.00	92.71
3152.00	92.72
3151.00	92.73
3150.00	92.74
3149.00	92.75
3148.00	92.76
3147.00	92.76
3146.00	92.76
3145.00	92.76
3144.00	92.76
3143.00	92.77
3142.00	92.79
3141.00	92.81
3140.00	92.83
3139.00	92.85
3138.00	92.86
3137.00	92.87
3136.00	92.88
3135.00	92.89
3134.00	92.90
3133.00	92.90
3132.00	92.91
3131.00	92.91
3130.00	92.92
3129.00	92.93
3128.00	92.95
3127.00	92.97
3126.00	92.98
3125.00	92.99
3124.00	92.99
3123.00	92.99
3122.00	92.99
3121.00	93.01
3120.00	93.02
3119.00	93.04
3118.00	93.05
3117.00	93.05
3116.00	93.04
3115.00	93.03
3114.00	93.01
3113.00	92.99
3112.00	92.97
3111.00	92.97
3110.00	92.97
3109.00	92.96
3108.00	92.96
3107.00	92.95
3106.00	92.95
3105.00	92.95
3104.00	92.95
3103.00	92.95
3102.00	92.95
3101.00	92.94
3100.00	92.93
3099.00	92.93
3098.00	92.93
3097.00	92.93
3096.00	92.94
3095.00	92.95
3094.00	92.96
3093.00	92.97
3092.00	92.98
3091.00	92.99
3090.00	93.00
3089.00	93.01
3088.00	93.02
3087.00	93.03
3086.00	93.05
3085.00	93.06
3084.00	93.07
3083.00	93.08
3082.00	93.08
3081.00	93.09
3080.00	93.09
3079.00	93.09
3078.00	93.07
3077.00	93.05
3076.00	93.03
3075.00	93.01
3074.00	92.98
3073.00	92.96
3072.00	92.95
3071.00	92.94
3070.00	92.93
3069.00	92.93
3068.00	92.93
3067.00	92.91
3066.00	92.89
3065.00	92.85
3064.00	92.81
3063.00	92.77
3062.00	92.73
3061.00	92.71
3060.00	92.69
3059.00	92.67
3058.00	92.65
3057.00	92.62
3056.00	92.58
3055.00	92.55
3054.00	92.51
3053.00	92.47
3052.00	92.44
3051.00	92.41
3050.00	92.38
3049.00	92.35
3048.00	92.31
3047.00	92.28
3046.00	92.25
3045.00	92.22
3044.00	92.19
3043.00	92.16
3042.00	92.12
3041.00	92.09
3040.00	92.06
3039.00	92.03
3038.00	92.02
3037.00	92.03
3036.00	92.04
3035.00	92.05
3034.00	92.07
3033.00	92.09
3032.00	92.10
3031.00	92.12
3030.00	92.13
3029.00	92.15
3028.00	92.18
3027.00	92.21
3026.00	92.24
3025.00	92.28
3024.00	92.31
3023.00	92.34
3022.00	92.37
3021.00	92.40
3020.00	92.43
3019.00	92.46
3018.00	92.49
3017.00	92.51
3016.00	92.54
3015.00	92.56
3014.00	92.57
3013.00	92.57
3012.00	92.56
3011.00	92.55
3010.00	92.53
3009.00	92.50
3008.00	92.48
3007.00	92.46
3006.00	92.44
3005.00	92.42
3004.00	92.39
3003.00	92.35
3002.00	92.32
3001.00	92.28
3000.00	92.24
2999.00	92.20
2998.00	92.14
2997.00	92.08
2996.00	92.01
2995.00	91.94
2994.00	91.87
2993.00	91.79
2992.00	91.71
2991.00	91.62
2990.00	91.52
2989.00	91.40
2988.00	91.28
2987.00	91.15
2986.00	91.01
2985.00	90.87
2984.00	90.72
2983.00	90.57
2982.00	90.41
2981.00	90.25
2980.00	90.09
2979.00	89.93
2978.00	89.77
2977.00	89.63
2976.00	89.50
2975.00	89.39
2974.00	89.30
2973.00	89.23
2972.00	89.18
2971.00	89.16
2970.00	89.16
2969.00	89.19
2968.00	89.23
2967.00	89.30
2966.00	89.39
2965.00	89.48
2964.00	89.58
2963.00	89.69
2962.00	89.79
2961.00	89.89
2960.00	89.98
2959.00	90.07
2958.00	90.14
2957.00	90.22
2956.00	90.29
2955.00	90.36
2954.00	90.44
2953.00	90.50
2952.00	90.55
2951.00	90.58
2950.00	90.61
2949.00	90.63
2948.00	90.64
2947.00	90.66
2946.00	90.66
2945.00	90.66
2944.00	90.65
2943.00	90.63
2942.00	90.60
2941.00	90.56
2940.00	90.52
2939.00	90.48
2938.00	90.45
2937.00	90.41
2936.00	90.38
2935.00	90.34
2934.00	90.30
2933.00	90.26
2932.00	90.22
2931.00	90.19
2930.00	90.16
2929.00	90.12
2928.00	90.09
2927.00	90.07
2926.00	90.05
2925.00	90.04
2924.00	90.04
2923.00	90.05
2922.00	90.06
2921.00	90.07
2920.00	90.09
2919.00	90.12
2918.00	90.14
2917.00	90.17
2916.00	90.19
2915.00	90.21
2914.00	90.23
2913.00	90.23
2912.00	90.23
2911.00	90.22
2910.00	90.21
2909.00	90.21
2908.00	90.21
2907.00	90.21
2906.00	90.21
2905.00	90.21
2904.00	90.20
2903.00	90.20
2902.00	90.19
2901.00	90.18
2900.00	90.17
2899.00	90.16
2898.00	90.15
2897.00	90.14
2896.00	90.14
2895.00	90.14
2894.00	90.14
2893.00	90.14
2892.00	90.14
2891.00	90.14
2890.00	90.13
2889.00	90.13
2888.00	90.13
2887.00	90.13
2886.00	90.14
2885.00	90.14
2884.00	90.15
2883.00	90.15
2882.00	90.15
2881.00	90.15
2880.00	90.16
2879.00	90.16
2878.00	90.17
2877.00	90.18
2876.00	90.20
2875.00	90.22
2874.00	90.23
2873.00	90.25
2872.00	90.27
2871.00	90.29
2870.00	90.32
2869.00	90.36
2868.00	90.40
2867.00	90.44
2866.00	90.48
2865.00	90.52
2864.00	90.57
2863.00	90.61
2862.00	90.65
2861.00	90.70
2860.00	90.74
2859.00	90.79
2858.00	90.83
2857.00	90.87
2856.00	90.92
2855.00	90.97
2854.00	91.01
2853.00	91.06
2852.00	91.10
2851.00	91.14
2850.00	91.18
2849.00	91.23
2848.00	91.27
2847.00	91.30
2846.00	91.33
2845.00	91.35
2844.00	91.37
2843.00	91.39
2842.00	91.42
2841.00	91.45
2840.00	91.48
2839.00	91.51
2838.00	91.54
2837.00	91.56
2836.00	91.58
2835.00	91.60
2834.00	91.61
2833.00	91.62
2832.00	91.64
2831.00	91.65
2830.00	91.67
2829.00	91.68
2828.00	91.71
2827.00	91.73
2826.00	91.76
2825.00	91.79
2824.00	91.82
2823.00	91.85
2822.00	91.87
2821.00	91.89
2820.00	91.92
2819.00	91.94
2818.00	91.97
2817.00	91.99
2816.00	92.02
2815.00	92.04
2814.00	92.06
2813.00	92.09
2812.00	92.11
2811.00	92.13
2810.00	92.15
2809.00	92.17
2808.00	92.19
2807.00	92.21
2806.00	92.22
2805.00	92.24
2804.00	92.26
2803.00	92.28
2802.00	92.31
2801.00	92.34
2800.00	92.37
2799.00	92.40
2798.00	92.43
2797.00	92.46
2796.00	92.48
2795.00	92.50
2794.00	92.52
2793.00	92.55
2792.00	92.57
2791.00	92.59
2790.00	92.61
2789.00	92.63
2788.00	92.64
2787.00	92.66
2786.00	92.67
2785.00	92.68
2784.00	92.69
2783.00	92.71
2782.00	92.72
2781.00	92.74
2780.00	92.76
2779.00	92.78
2778.00	92.79
2777.00	92.81
2776.00	92.83
2775.00	92.85
2774.00	92.87
2773.00	92.88
2772.00	92.90
2771.00	92.91
2770.00	92.92
2769.00	92.93
2768.00	92.95
2767.00	92.96
2766.00	92.98
2765.00	92.99
2764.00	93.00
2763.00	93.01
2762.00	93.02
2761.00	93.03
2760.00	93.04
2759.00	93.06
2758.00	93.07
2757.00	93.08
2756.00	93.09
2755.00	93.09
2754.00	93.10
2753.00	93.11
2752.00	93.13
2751.00	93.15
2750.00	93.17
2749.00	93.19
2748.00	93.20
2747.00	93.21
2746.00	93.21
2745.00	93.22
2744.00	93.23
2743.00	93.24
2742.00	93.25
2741.00	93.26
2740.00	93.27
2739.00	93.27
2738.00	93.28
2737.00	93.29
2736.00	93.30
2735.00	93.31
2734.00	93.31
2733.00	93.32
2732.00	93.32
2731.00	93.32
2730.00	93.32
2729.00	93.33
2728.00	93.34
2727.00	93.34
2726.00	93.34
2725.00	93.34
2724.00	93.34
2723.00	93.34
2722.00	93.34
2721.00	93.34
2720.00	93.34
2719.00	93.34
2718.00	93.34
2717.00	93.34
2716.00	93.33
2715.00	93.33
2714.00	93.33
2713.00	93.33
2712.00	93.33
2711.00	93.33
2710.00	93.33
2709.00	93.32
2708.00	93.32
2707.00	93.31
2706.00	93.31
2705.00	93.30
2704.00	93.30
2703.00	93.30
2702.00	93.30
2701.00	93.29
2700.00	93.29
2699.00	93.29
2698.00	93.28
2697.00	93.28
2696.00	93.29
2695.00	93.29
2694.00	93.29
2693.00	93.30
2692.00	93.30
2691.00	93.30
2690.00	93.30
2689.00	93.31
2688.00	93.32
2687.00	93.32
2686.00	93.32
2685.00	93.33
2684.00	93.33
2683.00	93.34
2682.00	93.34
2681.00	93.35
2680.00	93.35
2679.00	93.35
2678.00	93.35
2677.00	93.35
2676.00	93.35
2675.00	93.36
2674.00	93.36
2673.00	93.37
2672.00	93.37
2671.00	93.38
2670.00	93.39
2669.00	93.39
2668.00	93.40
2667.00	93.40
2666.00	93.41
2665.00	93.41
2664.00	93.42
2663.00	93.43
2662.00	93.43
2661.00	93.44
2660.00	93.44
2659.00	93.44
2658.00	93.45
2657.00	93.45
2656.00	93.46
2655.00	93.46
2654.00	93.46
2653.00	93.46
2652.00	93.45
2651.00	93.45
2650.00	93.45
2649.00	93.46
2648.00	93.46
2647.00	93.46
2646.00	93.46
2645.00	93.46
2644.00	93.45
2643.00	93.45
2642.00	93.44
2641.00	93.44
2640.00	93.44
2639.00	93.44
2638.00	93.45
2637.00	93.45
2636.00	93.44
2635.00	93.44
2634.00	93.43
2633.00	93.42
2632.00	93.41
2631.00	93.40
2630.00	93.39
2629.00	93.37
2628.00	93.36
2627.00	93.35
2626.00	93.33
2625.00	93.32
2624.00	93.31
2623.00	93.30
2622.00	93.29
2621.00	93.28
2620.00	93.27
2619.00	93.26
2618.00	93.25
2617.00	93.24
2616.00	93.23
2615.00	93.22
2614.00	93.21
2613.00	93.20
2612.00	93.19
2611.00	93.17
2610.00	93.16
2609.00	93.14
2608.00	93.12
2607.00	93.11
2606.00	93.10
2605.00	93.08
2604.00	93.07
2603.00	93.05
2602.00	93.04
2601.00	93.02
2600.00	93.01
2599.00	92.99
2598.00	92.97
2597.00	92.96
2596.00	92.94
2595.00	92.92
2594.00	92.91
2593.00	92.90
2592.00	92.89
2591.00	92.88
2590.00	92.87
2589.00	92.86
2588.00	92.85
2587.00	92.83
2586.00	92.82
2585.00	92.80
2584.00	92.78
2583.00	92.77
2582.00	92.75
2581.00	92.75
2580.00	92.74
2579.00	92.73
2578.00	92.72
2577.00	92.71
2576.00	92.70
2575.00	92.69
2574.00	92.67
2573.00	92.66
2572.00	92.64
2571.00	92.63
2570.00	92.63
2569.00	92.62
2568.00	92.61
2567.00	92.61
2566.00	92.60
2565.00	92.60
2564.00	92.59
2563.00	92.59
2562.00	92.59
2561.00	92.58
2560.00	92.58
2559.00	92.59
2558.00	92.59
2557.00	92.59
2556.00	92.59
2555.00	92.60
2554.00	92.60
2553.00	92.60
2552.00	92.61
2551.00	92.61
2550.00	92.62
2549.00	92.62
2548.00	92.63
2547.00	92.64
2546.00	92.64
2545.00	92.65
2544.00	92.66
2543.00	92.67
2542.00	92.68
2541.00	92.69
2540.00	92.70
2539.00	92.70
2538.00	92.71
2537.00	92.71
2536.00	92.71
2535.00	92.71
2534.00	92.72
2533.00	92.72
2532.00	92.73
2531.00	92.74
2530.00	92.74
2529.00	92.74
2528.00	92.74
2527.00	92.74
2526.00	92.74
2525.00	92.74
2524.00	92.74
2523.00	92.74
2522.00	92.74
2521.00	92.74
2520.00	92.74
2519.00	92.74
2518.00	92.74
2517.00	92.74
2516.00	92.74
2515.00	92.75
2514.00	92.75
2513.00	92.75
2512.00	92.75
2511.00	92.75
2510.00	92.76
2509.00	92.76
2508.00	92.76
2507.00	92.76
2506.00	92.76
2505.00	92.77
2504.00	92.77
2503.00	92.77
2502.00	92.77
2501.00	92.77
2500.00	92.78
2499.00	92.78
2498.00	92.78
2497.00	92.78
2496.00	92.78
2495.00	92.78
2494.00	92.78
2493.00	92.79
2492.00	92.79
2491.00	92.80
2490.00	92.81
2489.00	92.83
2488.00	92.84
2487.00	92.85
2486.00	92.86
2485.00	92.87
2484.00	92.87
2483.00	92.88
2482.00	92.89
2481.00	92.90
2480.00	92.91
2479.00	92.93
2478.00	92.94
2477.00	92.96
2476.00	92.97
2475.00	92.99
2474.00	93.01
2473.00	93.02
2472.00	93.03
2471.00	93.04
2470.00	93.05
2469.00	93.06
2468.00	93.08
2467.00	93.10
2466.00	93.12
2465.00	93.14
2464.00	93.16
2463.00	93.17
2462.00	93.19
2461.00	93.20
2460.00	93.22
2459.00	93.23
2458.00	93.24
2457.00	93.26
2456.00	93.27
2455.00	93.29
2454.00	93.30
2453.00	93.32
2452.00	93.34
2451.00	93.36
2450.00	93.38
2449.00	93.39
2448.00	93.40
2447.00	93.42
2446.00	93.43
2445.00	93.45
2444.00	93.46
2443.00	93.48
2442.00	93.50
2441.00	93.52
2440.00	93.54
2439.00	93.56
2438.00	93.58
2437.00	93.59
2436.00	93.61
2435.00	93.62
2434.00	93.64
2433.00	93.66
2432.00	93.67
2431.00	93.69
2430.00	93.71
2429.00	93.73
2428.00	93.74
2427.00	93.76
2426.00	93.78
2425.00	93.80
2424.00	93.81
2423.00	93.83
2422.00	93.84
2421.00	93.86
2420.00	93.87
2419.00	93.89
2418.00	93.91
2417.00	93.92
2416.00	93.94
2415.00	93.96
2414.00	93.97
2413.00	93.98
2412.00	94.00
2411.00	94.01
2410.00	94.03
2409.00	94.04
2408.00	94.06
2407.00	94.08
2406.00	94.09
2405.00	94.11
2404.00	94.13
2403.00	94.15
2402.00	94.17
2401.00	94.19
2400.00	94.21
2399.00	94.23
2398.00	94.25
2397.00	94.27
2396.00	94.28
2395.00	94.30
2394.00	94.31
2393.00	94.33
2392.00	94.34
2391.00	94.36
2390.00	94.37
2389.00	94.38
2388.00	94.40
2387.00	94.41
2386.00	94.43
2385.00	94.44
2384.00	94.45
2383.00	94.46
2382.00	94.48
2381.00	94.49
2380.00	94.51
2379.00	94.53
2378.00	94.55
2377.00	94.56
2376.00	94.56
2375.00	94.57
2374.00	94.58
2373.00	94.60
2372.00	94.63
2371.00	94.66
2370.00	94.68
2369.00	94.71
2368.00	94.74
2367.00	94.76
2366.00	94.78
2365.00	94.79
2364.00	94.79
2363.00	94.79
2362.00	94.79
2361.00	94.79
2360.00	94.81
2359.00	94.85
2358.00	94.90
2357.00	94.93
2356.00	94.95
2355.00	94.95
2354.00	94.95
2353.00	94.96
2352.00	94.99
2351.00	95.03
2350.00	95.06
2349.00	95.07
2348.00	95.07
2347.00	95.07
2346.00	95.07
2345.00	95.07
2344.00	95.09
2343.00	95.10
2342.00	95.12
2341.00	95.13
2340.00	95.14
2339.00	95.15
2338.00	95.18
2337.00	95.21
2336.00	95.25
2335.00	95.28
2334.00	95.30
2333.00	95.32
2332.00	95.33
2331.00	95.34
2330.00	95.36
2329.00	95.38
2328.00	95.39
2327.00	95.40
2326.00	95.40
2325.00	95.41
2324.00	95.42
2323.00	95.44
2322.00	95.47
2321.00	95.49
2320.00	95.51
2319.00	95.52
2318.00	95.52
2317.00	95.51
2316.00	95.50
2315.00	95.50
2314.00	95.51
2313.00	95.53
2312.00	95.56
2311.00	95.58
2310.00	95.60
2309.00	95.62
2308.00	95.63
2307.00	95.64
2306.00	95.65
2305.00	95.66
2304.00	95.66
2303.00	95.67
2302.00	95.68
2301.00	95.70
2300.00	95.71
2299.00	95.73
2298.00	95.74
2297.00	95.75
2296.00	95.74
2295.00	95.74
2294.00	95.73
2293.00	95.74
2292.00	95.75
2291.00	95.77
2290.00	95.79
2289.00	95.81
2288.00	95.82
2287.00	95.82
2286.00	95.82
2285.00	95.83
2284.00	95.83
2283.00	95.85
2282.00	95.86
2281.00	95.88
2280.00	95.89
2279.00	95.91
2278.00	95.92
2277.00	95.94
2276.00	95.95
2275.00	95.96
2274.00	95.97
2273.00	95.97
2272.00	95.97
2271.00	95.98
2270.00	95.98
2269.00	95.99
2268.00	96.00
2267.00	96.01
2266.00	96.01
2265.00	96.01
2264.00	96.02
2263.00	96.02
2262.00	96.03
2261.00	96.04
2260.00	96.05
2259.00	96.06
2258.00	96.06
2257.00	96.07
2256.00	96.08
2255.00	96.09
2254.00	96.11
2253.00	96.13
2252.00	96.14
2251.00	96.15
2250.00	96.14
2249.00	96.14
2248.00	96.14
2247.00	96.14
2246.00	96.14
2245.00	96.14
2244.00	96.15
2243.00	96.16
2242.00	96.17
2241.00	96.18
2240.00	96.18
2239.00	96.18
2238.00	96.18
2237.00	96.17
2236.00	96.17
2235.00	96.17
2234.00	96.17
2233.00	96.18
2232.00	96.21
2231.00	96.23
2230.00	96.24
2229.00	96.25
2228.00	96.24
2227.00	96.24
2226.00	96.23
2225.00	96.23
2224.00	96.23
2223.00	96.24
2222.00	96.25
2221.00	96.26
2220.00	96.26
2219.00	96.26
2218.00	96.25
2217.00	96.24
2216.00	96.24
2215.00	96.24
2214.00	96.24
2213.00	96.24
2212.00	96.24
2211.00	96.25
2210.00	96.27
2209.00	96.28
2208.00	96.29
2207.00	96.29
2206.00	96.29
2205.00	96.29
2204.00	96.30
2203.00	96.31
2202.00	96.31
2201.00	96.32
2200.00	96.32
2199.00	96.31
2198.00	96.30
2197.00	96.30
2196.00	96.30
2195.00	96.30
2194.00	96.30
2193.00	96.30
2192.00	96.29
2191.00	96.28
2190.00	96.27
2189.00	96.26
2188.00	96.26
2187.00	96.26
2186.00	96.27
2185.00	96.28
2184.00	96.29
2183.00	96.30
2182.00	96.31
2181.00	96.31
2180.00	96.31
2179.00	96.30
2178.00	96.29
2177.00	96.28
2176.00	96.28
2175.00	96.28
2174.00	96.28
2173.00	96.29
2172.00	96.29
2171.00	96.29
2170.00	96.28
2169.00	96.26
2168.00	96.24
2167.00	96.23
2166.00	96.22
2165.00	96.23
2164.00	96.24
2163.00	96.24
2162.00	96.25
2161.00	96.25
2160.00	96.25
2159.00	96.24
2158.00	96.23
2157.00	96.23
2156.00	96.22
2155.00	96.22
2154.00	96.23
2153.00	96.23
2152.00	96.23
2151.00	96.23
2150.00	96.23
2149.00	96.21
2148.00	96.19
2147.00	96.17
2146.00	96.15
2145.00	96.14
2144.00	96.13
2143.00	96.13
2142.00	96.13
2141.00	96.13
2140.00	96.12
2139.00	96.11
2138.00	96.10
2137.00	96.09
2136.00	96.09
2135.00	96.09
2134.00	96.09
2133.00	96.09
2132.00	96.09
2131.00	96.09
2130.00	96.09
2129.00	96.09
2128.00	96.09
2127.00	96.09
2126.00	96.09
2125.00	96.08
2124.00	96.06
2123.00	96.05
2122.00	96.03
2121.00	96.02
2120.00	96.01
2119.00	96.00
2118.00	95.99
2117.00	95.98
2116.00	95.98
2115.00	95.98
2114.00	95.98
2113.00	95.98
2112.00	95.97
2111.00	95.96
2110.00	95.95
2109.00	95.94
2108.00	95.93
2107.00	95.94
2106.00	95.94
2105.00	95.96
2104.00	95.96
2103.00	95.96
2102.00	95.94
2101.00	95.92
2100.00	95.90
2099.00	95.88
2098.00	95.87
2097.00	95.86
2096.00	95.85
2095.00	95.85
2094.00	95.84
2093.00	95.83
2092.00	95.81
2091.00	95.79
2090.00	95.77
2089.00	95.75
2088.00	95.74
2087.00	95.73
2086.00	95.73
2085.00	95.73
2084.00	95.74
2083.00	95.74
2082.00	95.74
2081.00	95.73
2080.00	95.71
2079.00	95.69
2078.00	95.68
2077.00	95.67
2076.00	95.66
2075.00	95.65
2074.00	95.64
2073.00	95.63
2072.00	95.61
2071.00	95.59
2070.00	95.57
2069.00	95.55
2068.00	95.52
2067.00	95.50
2066.00	95.48
2065.00	95.46
2064.00	95.44
2063.00	95.43
2062.00	95.43
2061.00	95.42
2060.00	95.41
2059.00	95.40
2058.00	95.39
2057.00	95.37
2056.00	95.36
2055.00	95.35
2054.00	95.33
2053.00	95.32
2052.00	95.30
2051.00	95.28
2050.00	95.26
2049.00	95.24
2048.00	95.23
2047.00	95.21
2046.00	95.20
2045.00	95.18
2044.00	95.15
2043.00	95.12
2042.00	95.08
2041.00	95.05
2040.00	95.03
2039.00	95.03
2038.00	95.02
2037.00	95.02
2036.00	95.01
2035.00	95.00
2034.00	94.98
2033.00	94.96
2032.00	94.94
2031.00	94.92
2030.00	94.90
2029.00	94.89
2028.00	94.87
2027.00	94.86
2026.00	94.85
2025.00	94.84
2024.00	94.83
2023.00	94.81
2022.00	94.79
2021.00	94.76
2020.00	94.72
2019.00	94.69
2018.00	94.66
2017.00	94.64
2016.00	94.64
2015.00	94.64
2014.00	94.64
2013.00	94.63
2012.00	94.62
2011.00	94.60
2010.00	94.58
2009.00	94.56
2008.00	94.55
2007.00	94.53
2006.00	94.52
2005.00	94.51
2004.00	94.49
2003.00	94.48
2002.00	94.46
2001.00	94.45
2000.00	94.43
1999.00	94.42
1998.00	94.40
1997.00	94.38
1996.00	94.36
1995.00	94.34
1994.00	94.31
1993.00	94.28
1992.00	94.26
1991.00	94.24
1990.00	94.22
1989.00	94.22
1988.00	94.21
1987.00	94.20
1986.00	94.19
1985.00	94.18
1984.00	94.17
1983.00	94.15
1982.00	94.13
1981.00	94.11
1980.00	94.10
1979.00	94.08
1978.00	94.07
1977.00	94.06
1976.00	94.05
1975.00	94.03
1974.00	94.01
1973.00	93.99
1972.00	93.97
1971.00	93.95
1970.00	93.93
1969.00	93.90
1968.00	93.88
1967.00	93.85
1966.00	93.85
1965.00	93.85
1964.00	93.85
1963.00	93.85
1962.00	93.83
1961.00	93.81
1960.00	93.80
1959.00	93.79
1958.00	93.78
1957.00	93.77
1956.00	93.76
1955.00	93.74
1954.00	93.72
1953.00	93.71
1952.00	93.70
1951.00	93.69
1950.00	93.68
1949.00	93.67
1948.00	93.66
1947.00	93.64
1946.00	93.65
1945.00	93.64
1944.00	93.63
1943.00	93.62
1942.00	93.61
1941.00	93.59
1940.00	93.58
1939.00	93.56
1938.00	93.54
1937.00	93.53
1936.00	93.51
1935.00	93.50
1934.00	93.49
1933.00	93.48
1932.00	93.47
1931.00	93.46
1930.00	93.45
1929.00	93.44
1928.00	93.43
1927.00	93.42
1926.00	93.41
1925.00	93.41
1924.00	93.41
1923.00	93.41
1922.00	93.42
1921.00	93.42
1920.00	93.43
1919.00	93.43
1918.00	93.44
1917.00	93.44
1916.00	93.43
1915.00	93.43
1914.00	93.43
1913.00	93.43
1912.00	93.44
1911.00	93.45
1910.00	93.46
1909.00	93.46
1908.00	93.47
1907.00	93.48
1906.00	93.48
1905.00	93.49
1904.00	93.49
1903.00	93.50
1902.00	93.50
1901.00	93.51
1900.00	93.52
1899.00	93.53
1898.00	93.55
1897.00	93.56
1896.00	93.57
1895.00	93.59
1894.00	93.60
1893.00	93.62
1892.00	93.63
1891.00	93.64
1890.00	93.66
1889.00	93.67
1888.00	93.69
1887.00	93.67
1886.00	93.69
1885.00	93.70
1884.00	93.71
1883.00	93.72
1882.00	93.73
1881.00	93.74
1880.00	93.75
1879.00	93.76
1878.00	93.77
1877.00	93.79
1876.00	93.81
1875.00	93.83
1874.00	93.85
1873.00	93.87
1872.00	93.89
1871.00	93.90
1870.00	93.91
1869.00	93.90
1868.00	93.90
1867.00	93.91
1866.00	93.93
1865.00	93.95
1864.00	93.97
1863.00	93.97
1862.00	93.98
1861.00	93.98
1860.00	93.99
1859.00	94.00
1858.00	94.01
1857.00	94.03
1856.00	94.04
1855.00	94.06
1854.00	94.07
1853.00	94.08
1852.00	94.09
1851.00	94.09
1850.00	94.08
1849.00	94.08
1848.00	94.09
1847.00	94.10
1846.00	94.12
1845.00	94.12
1844.00	94.12
1843.00	94.12
1842.00	94.13
1841.00	94.14
1840.00	94.15
1839.00	94.15
1838.00	94.14
1837.00	94.14
1836.00	94.14
1835.00	94.15
1834.00	94.18
1833.00	94.21
1832.00	94.24
1831.00	94.25
1830.00	94.25
1829.00	94.24
1828.00	94.24
1827.00	94.24
1826.00	94.23
1825.00	94.21
1824.00	94.20
1823.00	94.20
1822.00	94.20
1821.00	94.19
1820.00	94.19
1819.00	94.18
1818.00	94.17
1817.00	94.17
1816.00	94.17
1815.00	94.16
1814.00	94.16
1813.00	94.14
1812.00	94.12
1811.00	94.10
1810.00	94.09
1809.00	94.08
1808.00	94.07
1807.00	94.06
1806.00	94.06
1805.00	94.05
1804.00	94.03
1803.00	94.01
1802.00	93.99
1801.00	93.98
1800.00	93.97
1799.00	93.95
1798.00	93.92
1797.00	93.89
1796.00	93.87
1795.00	93.86
1794.00	93.86
1793.00	93.85
1792.00	93.82
1791.00	93.79
1790.00	93.77
1789.00	93.76
1788.00	93.75
1787.00	93.72
1786.00	93.69
1785.00	93.65
1784.00	93.62
1783.00	93.60
1782.00	93.57
1781.00	93.53
1780.00	93.50
1779.00	93.48
1778.00	93.46
1777.00	93.45
1776.00	93.44
1775.00	93.41
1774.00	93.37
1773.00	93.34
1772.00	93.31
1771.00	93.28
1770.00	93.24
1769.00	93.17
1768.00	93.09
1767.00	93.02
1766.00	92.96
1765.00	92.92
1764.00	92.85
1763.00	92.75
1762.00	92.62
1761.00	92.48
1760.00	92.35
1759.00	92.22
1758.00	92.06
1757.00	91.89
1756.00	91.72
1755.00	91.54
1754.00	91.33
1753.00	91.08
1752.00	90.80
1751.00	90.49
1750.00	90.18
1749.00	89.89
1748.00	89.60
1747.00	89.28
1746.00	88.92
1745.00	88.53
1744.00	88.13
1743.00	87.73
1742.00	87.32
1741.00	86.87
1740.00	86.34
1739.00	85.77
1738.00	85.21
1737.00	84.66
1736.00	84.04
1735.00	83.28
1734.00	82.39
1733.00	81.54
1732.00	80.86
1731.00	80.30
1730.00	79.75
1729.00	79.15
1728.00	78.51
1727.00	77.86
1726.00	77.21
1725.00	76.54
1724.00	75.88
1723.00	75.25
1722.00	74.69
1721.00	74.16
1720.00	73.60
1719.00	72.97
1718.00	72.26
1717.00	71.58
1716.00	71.05
1715.00	70.65
1714.00	70.33
1713.00	70.03
1712.00	69.72
1711.00	69.44
1710.00	69.20
1709.00	69.00
1708.00	68.85
1707.00	68.73
1706.00	68.64
1705.00	68.58
1704.00	68.57
1703.00	68.59
1702.00	68.69
1701.00	68.86
1700.00	69.04
1699.00	69.16
1698.00	69.26
1697.00	69.43
1696.00	69.75
1695.00	70.21
1694.00	70.73
1693.00	71.25
1692.00	71.75
1691.00	72.25
1690.00	72.78
1689.00	73.32
1688.00	73.81
1687.00	74.26
1686.00	74.78
1685.00	75.46
1684.00	76.28
1683.00	77.07
1682.00	77.73
1681.00	78.26
1680.00	78.75
1679.00	79.24
1678.00	79.74
1677.00	80.27
1676.00	80.80
1675.00	81.29
1674.00	81.72
1673.00	82.07
1672.00	82.38
1671.00	82.68
1670.00	83.00
1669.00	83.30
1668.00	83.56
1667.00	83.77
1666.00	83.96
1665.00	84.16
1664.00	84.36
1663.00	84.56
1662.00	84.74
1661.00	84.89
1660.00	85.01
1659.00	85.14
1658.00	85.27
1657.00	85.36
1656.00	85.41
1655.00	85.43
1654.00	85.42
1653.00	85.41
1652.00	85.41
1651.00	85.47
1650.00	85.58
1649.00	85.63
1648.00	85.51
1647.00	85.26
1646.00	84.94
1645.00	84.60
1644.00	84.28
1643.00	83.94
1642.00	83.58
1641.00	83.17
1640.00	82.74
1639.00	82.30
1638.00	81.84
1637.00	81.34
1636.00	80.84
1635.00	80.41
1634.00	80.12
1633.00	79.97
1632.00	79.96
1631.00	80.06
1630.00	80.26
1629.00	80.55
1628.00	80.90
1627.00	81.27
1626.00	81.62
1625.00	81.97
1624.00	82.29
1623.00	82.60
1622.00	82.86
1621.00	83.06
1620.00	83.19
1619.00	83.27
1618.00	83.33
1617.00	83.40
1616.00	83.51
1615.00	83.64
1614.00	83.77
1613.00	83.86
1612.00	83.89
1611.00	83.89
1610.00	83.86
1609.00	83.82
1608.00	83.77
1607.00	83.72
1606.00	83.65
1605.00	83.57
1604.00	83.48
1603.00	83.37
1602.00	83.25
1601.00	83.12
1600.00	82.98
1599.00	82.83
1598.00	82.66
1597.00	82.48
1596.00	82.28
1595.00	82.06
1594.00	81.84
1593.00	81.60
1592.00	81.37
1591.00	81.12
1590.00	80.86
1589.00	80.60
1588.00	80.34
1587.00	80.08
1586.00	79.81
1585.00	79.54
1584.00	79.27
1583.00	79.00
1582.00	78.73
1581.00	78.47
1580.00	78.21
1579.00	77.92
1578.00	77.58
1577.00	77.23
1576.00	76.92
1575.00	76.70
1574.00	76.59
1573.00	76.54
1572.00	76.48
1571.00	76.37
1570.00	76.22
1569.00	76.06
1568.00	75.90
1567.00	75.76
1566.00	75.64
1565.00	75.54
1564.00	75.44
1563.00	75.34
1562.00	75.26
1561.00	75.23
1560.00	75.27
1559.00	75.29
1558.00	75.32
1557.00	75.33
1556.00	75.31
1555.00	75.30
1554.00	75.31
1553.00	75.35
1552.00	75.42
1551.00	75.52
1550.00	75.63
1549.00	75.77
1548.00	75.91
1547.00	76.06
1546.00	76.20
1545.00	76.34
1544.00	76.50
1543.00	76.66
1542.00	76.82
1541.00	76.97
1540.00	77.15
1539.00	77.36
1538.00	77.56
1537.00	77.79
1536.00	78.03
1535.00	78.27
1534.00	78.48
1533.00	78.68
1532.00	78.86
1531.00	79.01
1530.00	79.15
1529.00	79.29
1528.00	79.44
1527.00	79.60
1526.00	79.78
1525.00	79.95
1524.00	80.09
1523.00	80.20
1522.00	80.29
1521.00	80.43
1520.00	80.60
1519.00	80.79
1518.00	80.95
1517.00	81.08
1516.00	81.18
1515.00	81.27
1514.00	81.33
1513.00	81.38
1512.00	81.43
1511.00	81.45
1510.00	81.43
1509.00	81.38
1508.00	81.31
1507.00	81.29
1506.00	81.33
1505.00	81.32
1504.00	81.24
1503.00	81.13
1502.00	80.99
1501.00	80.76
1500.00	80.44
1499.00	79.98
1498.00	79.36
1497.00	78.60
1496.00	77.79
1495.00	77.06
1494.00	76.45
1493.00	75.95
1492.00	75.50
1491.00	75.06
1490.00	74.68
1489.00	74.40
1488.00	74.22
1487.00	74.08
1486.00	73.94
1485.00	73.75
1484.00	73.54
1483.00	73.30
1482.00	73.06
1481.00	72.83
1480.00	72.65
1479.00	72.55
1478.00	72.52
1477.00	72.56
1476.00	72.67
1475.00	72.85
1474.00	73.13
1473.00	73.54
1472.00	74.03
1471.00	74.54
1470.00	75.00
1469.00	75.43
1468.00	75.85
1467.00	76.26
1466.00	76.68
1465.00	77.07
1464.00	77.39
1463.00	77.64
1462.00	77.83
1461.00	77.97
1460.00	78.07
1459.00	78.12
1458.00	78.16
1457.00	78.21
1456.00	78.29
1455.00	78.38
1454.00	78.47
1453.00	78.55
1452.00	78.60
1451.00	78.63
1450.00	78.64
1449.00	78.63
1448.00	78.62
1447.00	78.60
1446.00	78.59
1445.00	78.58
1444.00	78.57
1443.00	78.55
1442.00	78.53
1441.00	78.50
1440.00	78.46
1439.00	78.40
1438.00	78.30
1437.00	78.16
1436.00	77.98
1435.00	77.79
1434.00	77.61
1433.00	77.42
1432.00	77.21
1431.00	76.97
1430.00	76.70
1429.00	76.41
1428.00	76.11
1427.00	75.82
1426.00	75.52
1425.00	75.22
1424.00	74.93
1423.00	74.68
1422.00	74.47
1421.00	74.28
1420.00	74.11
1419.00	73.96
1418.00	73.88
1417.00	73.88
1416.00	73.94
1415.00	74.01
1414.00	74.07
1413.00	74.13
1412.00	74.18
1411.00	74.22
1410.00	74.24
1409.00	74.25
1408.00	74.22
1407.00	74.16
1406.00	74.05
1405.00	73.92
1404.00	73.78
1403.00	73.63
1402.00	73.49
1401.00	73.34
1400.00	73.17
1399.00	72.98
1398.00	72.79
1397.00	72.62
1396.00	72.47
1395.00	72.34
1394.00	72.22
1393.00	72.12
1392.00	72.03
1391.00	71.94
1390.00	71.84
1389.00	71.74
1388.00	71.64
1387.00	71.57
1386.00	71.52
1385.00	71.48
1384.00	71.46
1383.00	71.42
1382.00	71.39
1381.00	71.35
1380.00	71.33
1379.00	71.33
1378.00	71.35
1377.00	71.38
1376.00	71.44
1375.00	71.52
1374.00	71.63
1373.00	71.77
1372.00	71.92
1371.00	72.08
1370.00	72.24
1369.00	72.42
1368.00	72.60
1367.00	72.78
1366.00	72.96
1365.00	73.10
1364.00	73.24
1363.00	73.36
1362.00	73.50
1361.00	73.65
1360.00	73.79
1359.00	73.91
1358.00	74.01
1357.00	74.09
1356.00	74.17
1355.00	74.26
1354.00	74.34
1353.00	74.42
1352.00	74.50
1351.00	74.57
1350.00	74.65
1349.00	74.73
1348.00	74.80
1347.00	74.87
1346.00	74.92
1345.00	74.96
1344.00	74.98
1343.00	74.97
1342.00	74.92
1341.00	74.84
1340.00	74.75
1339.00	74.67
1338.00	74.61
1337.00	74.57
1336.00	74.51
1335.00	74.44
1334.00	74.35
1333.00	74.23
1332.00	74.10
1331.00	73.95
1330.00	73.80
1329.00	73.64
1328.00	73.48
1327.00	73.32
1326.00	73.15
1325.00	72.97
1324.00	72.80
1323.00	72.62
1322.00	72.45
1321.00	72.29
1320.00	72.13
1319.00	71.98
1318.00	71.85
1317.00	71.74
1316.00	71.64
1315.00	71.55
1314.00	71.48
1313.00	71.42
1312.00	71.39
1311.00	71.37
1310.00	71.36
1309.00	71.36
1308.00	71.38
1307.00	71.40
1306.00	71.44
1305.00	71.50
1304.00	71.57
1303.00	71.64
1302.00	71.73
1301.00	71.82
1300.00	71.92
1299.00	72.02
1298.00	72.11
1297.00	72.21
1296.00	72.30
1295.00	72.38
1294.00	72.46
1293.00	72.53
1292.00	72.59
1291.00	72.64
1290.00	72.68
1289.00	72.72
1288.00	72.75
1287.00	72.79
1286.00	72.82
1285.00	72.85
1284.00	72.88
1283.00	72.91
1282.00	72.95
1281.00	73.00
1280.00	73.05
1279.00	73.11
1278.00	73.17
1277.00	73.22
1276.00	73.27
1275.00	73.31
1274.00	73.34
1273.00	73.37
1272.00	73.40
1271.00	73.44
1270.00	73.49
1269.00	73.55
1268.00	73.63
1267.00	73.73
1266.00	73.83
1265.00	73.94
1264.00	74.06
1263.00	74.19
1262.00	74.32
1261.00	74.45
1260.00	74.58
1259.00	74.71
1258.00	74.83
1257.00	74.95
1256.00	75.06
1255.00	75.16
1254.00	75.25
1253.00	75.34
1252.00	75.41
1251.00	75.48
1250.00	75.53
1249.00	75.58
1248.00	75.62
1247.00	75.65
1246.00	75.67
1245.00	75.67
1244.00	75.66
1243.00	75.63
1242.00	75.58
1241.00	75.51
1240.00	75.42
1239.00	75.32
1238.00	75.19
1237.00	75.03
1236.00	74.84
1235.00	74.62
1234.00	74.37
1233.00	74.10
1232.00	73.81
1231.00	73.48
1230.00	73.11
1229.00	72.71
1228.00	72.26
1227.00	71.78
1226.00	71.27
1225.00	70.74
1224.00	70.20
1223.00	69.65
1222.00	69.08
1221.00	68.51
1220.00	67.95
1219.00	67.38
1218.00	66.83
1217.00	66.28
1216.00	65.74
1215.00	65.21
1214.00	64.72
1213.00	64.25
1212.00	63.81
1211.00	63.42
1210.00	63.06
1209.00	62.75
1208.00	62.47
1207.00	62.24
1206.00	62.06
1205.00	61.93
1204.00	61.86
1203.00	61.86
1202.00	61.92
1201.00	62.04
1200.00	62.22
1199.00	62.46
1198.00	62.73
1197.00	63.04
1196.00	63.38
1195.00	63.74
1194.00	64.13
1193.00	64.53
1192.00	64.95
1191.00	65.37
1190.00	65.79
1189.00	66.19
1188.00	66.58
1187.00	66.95
1186.00	67.30
1185.00	67.61
1184.00	67.87
1183.00	68.09
1182.00	68.26
1181.00	68.37
1180.00	68.43
1179.00	68.45
1178.00	68.42
1177.00	68.35
1176.00	68.24
1175.00	68.09
1174.00	67.91
1173.00	67.69
1172.00	67.43
1171.00	67.14
1170.00	66.82
1169.00	66.47
1168.00	66.10
1167.00	65.72
1166.00	65.35
1165.00	64.98
1164.00	64.63
1163.00	64.30
1162.00	64.00
1161.00	63.75
1160.00	63.54
1159.00	63.38
1158.00	63.28
1157.00	63.24
1156.00	63.27
1155.00	63.38
1154.00	63.55
1153.00	63.79
1152.00	64.09
1151.00	64.43
1150.00	64.82
1149.00	65.22
1148.00	65.63
1147.00	66.03
1146.00	66.42
1145.00	66.79
1144.00	67.14
1143.00	67.46
1142.00	67.76
1141.00	68.02
1140.00	68.26
1139.00	68.48
1138.00	68.69
1137.00	68.90
1136.00	69.13
1135.00	69.40
1134.00	69.72
1133.00	70.08
1132.00	70.48
1131.00	70.92
1130.00	71.39
1129.00	71.87
1128.00	72.35
1127.00	72.82
1126.00	73.27
1125.00	73.68
1124.00	74.05
1123.00	74.40
1122.00	74.71
1121.00	75.01
1120.00	75.27
1119.00	75.51
1118.00	75.72
1117.00	75.89
1116.00	76.05
1115.00	76.18
1114.00	76.29
1113.00	76.39
1112.00	76.48
1111.00	76.54
1110.00	76.58
1109.00	76.58
1108.00	76.56
1107.00	76.51
1106.00	76.42
1105.00	76.28
1104.00	76.09
1103.00	75.82
1102.00	75.46
1101.00	75.01
1100.00	74.46
1099.00	73.80
1098.00	73.05
1097.00	72.22
1096.00	71.32
1095.00	70.38
1094.00	69.43
1093.00	68.49
1092.00	67.58
1091.00	66.74
1090.00	65.97
1089.00	65.31
1088.00	64.75
1087.00	64.33
1086.00	64.05
1085.00	63.92
1084.00	63.94
1083.00	64.10
1082.00	64.37
1081.00	64.74
1080.00	65.19
1079.00	65.70
1078.00	66.26
1077.00	66.85
1076.00	67.45
1075.00	68.04
1074.00	68.61
1073.00	69.15
1072.00	69.63
1071.00	70.05
1070.00	70.42
1069.00	70.72
1068.00	70.95
1067.00	71.11
1066.00	71.19
1065.00	71.19
1064.00	71.11
1063.00	70.96
1062.00	70.73
1061.00	70.42
1060.00	70.01
1059.00	69.51
1058.00	68.93
1057.00	68.26
1056.00	67.52
1055.00	66.73
1054.00	65.90
1053.00	65.08
1052.00	64.29
1051.00	63.58
1050.00	63.00
1049.00	62.58
1048.00	62.35
1047.00	62.31
1046.00	62.46
1045.00	62.79
1044.00	63.27
1043.00	63.90
1042.00	64.63
1041.00	65.45
1040.00	66.31
1039.00	67.18
1038.00	68.03
1037.00	68.84
1036.00	69.60
1035.00	70.28
1034.00	70.90
1033.00	71.46
1032.00	71.94
1031.00	72.37
1030.00	72.74
1029.00	73.06
1028.00	73.35
1027.00	73.60
1026.00	73.82
1025.00	74.01
1024.00	74.17
1023.00	74.30
1022.00	74.39
1021.00	74.43
1020.00	74.44
1019.00	74.41
1018.00	74.37
1017.00	74.31
1016.00	74.23
1015.00	74.11
1014.00	73.96
1013.00	73.76
1012.00	73.53
1011.00	73.27
1010.00	72.99
1009.00	72.73
1008.00	72.49
1007.00	72.30
1006.00	72.16
1005.00	72.11
1004.00	72.13
1003.00	72.24
1002.00	72.43
1001.00	72.68
1000.00	72.96
999.00	73.27
998.00	73.58
997.00	73.88
996.00	74.18
995.00	74.46
994.00	74.71
993.00	74.94
992.00	75.13
991.00	75.29
990.00	75.41
989.00	75.50
988.00	75.56
987.00	75.61
986.00	75.63
985.00	75.63
984.00	75.60
983.00	75.54
982.00	75.45
981.00	75.32
980.00	75.14
979.00	74.92
978.00	74.65
977.00	74.32
976.00	73.97
975.00	73.58
974.00	73.19
973.00	72.79
972.00	72.39
971.00	71.98
970.00	71.56
969.00	71.11
968.00	70.59
967.00	69.96
966.00	69.19
965.00	68.25
964.00	67.13
963.00	65.88
962.00	64.52
961.00	63.13
960.00	61.79
959.00	60.56
958.00	59.47
957.00	58.54
956.00	57.73
955.00	57.03
954.00	56.41
953.00	55.91
952.00	55.53
951.00	55.33
950.00	55.32
949.00	55.52
948.00	55.91
947.00	56.47
946.00	57.15
945.00	57.91
944.00	58.74
943.00	59.60
942.00	60.48
941.00	61.38
940.00	62.29
939.00	63.19
938.00	64.09
937.00	64.96
936.00	65.81
935.00	66.62
934.00	67.39
933.00	68.10
932.00	68.75
931.00	69.33
930.00	69.85
929.00	70.32
928.00	70.73
927.00	71.11
926.00	71.45
925.00	71.78
924.00	72.10
923.00	72.41
922.00	72.72
921.00	73.04
920.00	73.37
919.00	73.71
918.00	74.04
917.00	74.36
916.00	74.66
915.00	74.94
914.00	75.20
913.00	75.42
912.00	75.60
911.00	75.73
910.00	75.81
909.00	75.83
908.00	75.81
907.00	75.74
906.00	75.64
905.00	75.50
904.00	75.33
903.00	75.13
902.00	74.91
901.00	74.68
900.00	74.45
899.00	74.23
898.00	74.02
897.00	73.83
896.00	73.65
895.00	73.48
894.00	73.30
893.00	73.12
892.00	72.93
891.00	72.72
890.00	72.50
889.00	72.25
888.00	71.99
887.00	71.72
886.00	71.42
885.00	71.12
884.00	70.81
883.00	70.52
882.00	70.26
881.00	70.06
880.00	69.95
879.00	69.95
878.00	70.06
877.00	70.26
876.00	70.53
875.00	70.81
874.00	71.05
873.00	71.22
872.00	71.29
871.00	71.25
870.00	71.14
869.00	70.98
868.00	70.82
867.00	70.71
866.00	70.67
865.00	70.75
864.00	70.96
863.00	71.30
862.00	71.72
861.00	72.21
860.00	72.73
859.00	73.26
858.00	73.76
857.00	74.22
856.00	74.64
855.00	75.00
854.00	75.31
853.00	75.57
852.00	75.79
851.00	75.97
850.00	76.11
849.00	76.21
848.00	76.26
847.00	76.28
846.00	76.23
845.00	76.11
844.00	75.90
843.00	75.59
842.00	75.20
841.00	74.73
840.00	74.19
839.00	73.60
838.00	72.96
837.00	72.29
836.00	71.61
835.00	70.94
834.00	70.28
833.00	69.65
832.00	69.07
831.00	68.54
830.00	68.10
829.00	67.74
828.00	67.47
827.00	67.29
826.00	67.18
825.00	67.13
824.00	67.11
823.00	67.10
822.00	67.09
821.00	67.07
820.00	67.05
819.00	67.03
818.00	67.04
817.00	67.07
816.00	67.13
815.00	67.23
814.00	67.37
813.00	67.54
812.00	67.74
811.00	67.98
810.00	68.26
809.00	68.56
808.00	68.89
807.00	69.23
806.00	69.57
805.00	69.91
804.00	70.26
803.00	70.63
802.00	70.99
801.00	71.36
800.00	71.70
799.00	72.02
798.00	72.31
797.00	72.58
796.00	72.85
795.00	73.11
794.00	73.35
793.00	73.57
792.00	73.78
791.00	73.96
790.00	74.13
789.00	74.29
788.00	74.43
787.00	74.56
786.00	74.69
785.00	74.82
784.00	74.95
783.00	75.06
782.00	75.16
781.00	75.24
780.00	75.29
779.00	75.33
778.00	75.35
777.00	75.35
776.00	75.34
775.00	75.31
774.00	75.26
773.00	75.20
772.00	75.11
771.00	75.02
770.00	74.91
769.00	74.78
768.00	74.63
767.00	74.47
766.00	74.29
765.00	74.10
764.00	73.90
763.00	73.68
762.00	73.46
761.00	73.22
760.00	72.99
759.00	72.74
758.00	72.49
757.00	72.23
756.00	71.99
755.00	71.76
754.00	71.55
753.00	71.35
752.00	71.17
751.00	70.99
750.00	70.82
749.00	70.66
748.00	70.50
747.00	70.35
746.00	70.19
745.00	70.04
744.00	69.88
743.00	69.71
742.00	69.51
741.00	69.29
740.00	69.06
739.00	68.81
738.00	68.56
737.00	68.32
736.00	68.08
735.00	67.87
734.00	67.70
733.00	67.56
732.00	67.46
731.00	67.41
730.00	67.42
729.00	67.49
728.00	67.63
727.00	67.83
726.00	68.06
725.00	68.32
724.00	68.59
723.00	68.89
722.00	69.20
721.00	69.51
720.00	69.81
719.00	70.08
718.00	70.34
717.00	70.58
716.00	70.81
715.00	71.03
714.00	71.22
713.00	71.40
712.00	71.57
711.00	71.76
710.00	71.94
709.00	72.13
708.00	72.30
707.00	72.47
706.00	72.62
705.00	72.77
704.00	72.89
703.00	73.00
702.00	73.10
701.00	73.19
700.00	73.27
699.00	73.35
698.00	73.42
697.00	73.47
696.00	73.52
695.00	73.58
694.00	73.63
693.00	73.67
692.00	73.68
691.00	73.68
690.00	73.67
689.00	73.65
688.00	73.64
687.00	73.62
686.00	73.59
685.00	73.55
684.00	73.50
683.00	73.45
682.00	73.39
681.00	73.34
680.00	73.28
679.00	73.21
678.00	73.16
677.00	73.12
676.00	73.10
675.00	73.09
674.00	73.09
673.00	73.09
672.00	73.08
671.00	73.07
670.00	73.07
669.00	73.04
668.00	72.99
667.00	72.91
666.00	72.85
665.00	72.81
664.00	72.76
663.00	72.69
662.00	72.60
661.00	72.48
660.00	72.34
659.00	72.20
658.00	72.05
657.00	71.90
656.00	71.74
655.00	71.58
654.00	71.41
653.00	71.25
652.00	71.11
651.00	71.01
650.00	70.93
649.00	70.83
648.00	70.71
647.00	70.55
646.00	70.37
645.00	70.19
644.00	70.00
643.00	69.83
642.00	69.65
641.00	69.45
640.00	69.25
639.00	69.05
638.00	68.85
637.00	68.64
636.00	68.39
635.00	68.11
634.00	67.80
633.00	67.48
632.00	67.16
631.00	66.87
630.00	66.63
629.00	66.41
628.00	66.18
627.00	65.94
626.00	65.72
625.00	65.56
624.00	65.47
623.00	65.41
622.00	65.36
621.00	65.30
620.00	65.30
619.00	65.40
618.00	65.60
617.00	65.87
616.00	66.16
615.00	66.46
614.00	66.78
613.00	67.10
612.00	67.37
611.00	67.54
610.00	67.61
609.00	67.64
608.00	67.67
607.00	67.74
606.00	67.85
605.00	67.97
604.00	68.07
603.00	68.16
602.00	68.20
601.00	68.20
600.00	68.19
