#Created as New Dataset	Sample 001 By PEService Date Tuesday	 April 30 2013
#cm-1	%T
4000.00	99.83
3999.00	99.82
3998.00	99.82
3997.00	99.82
3996.00	99.82
3995.00	99.82
3994.00	99.83
3993.00	99.83
3992.00	99.84
3991.00	99.84
3990.00	99.85
3989.00	99.85
3988.00	99.84
3987.00	99.84
3986.00	99.83
3985.00	99.83
3984.00	99.83
3983.00	99.84
3982.00	99.84
3981.00	99.85
3980.00	99.85
3979.00	99.86
3978.00	99.85
3977.00	99.85
3976.00	99.84
3975.00	99.84
3974.00	99.84
3973.00	99.84
3972.00	99.84
3971.00	99.84
3970.00	99.84
3969.00	99.84
3968.00	99.84
3967.00	99.84
3966.00	99.84
3965.00	99.84
3964.00	99.84
3963.00	99.85
3962.00	99.86
3961.00	99.86
3960.00	99.86
3959.00	99.86
3958.00	99.85
3957.00	99.85
3956.00	99.85
3955.00	99.86
3954.00	99.86
3953.00	99.86
3952.00	99.86
3951.00	99.86
3950.00	99.86
3949.00	99.86
3948.00	99.87
3947.00	99.87
3946.00	99.86
3945.00	99.86
3944.00	99.85
3943.00	99.84
3942.00	99.84
3941.00	99.84
3940.00	99.85
3939.00	99.85
3938.00	99.85
3937.00	99.86
3936.00	99.86
3935.00	99.86
3934.00	99.86
3933.00	99.86
3932.00	99.86
3931.00	99.86
3930.00	99.86
3929.00	99.86
3928.00	99.86
3927.00	99.86
3926.00	99.86
3925.00	99.87
3924.00	99.87
3923.00	99.88
3922.00	99.87
3921.00	99.87
3920.00	99.86
3919.00	99.86
3918.00	99.86
3917.00	99.86
3916.00	99.86
3915.00	99.86
3914.00	99.86
3913.00	99.86
3912.00	99.87
3911.00	99.87
3910.00	99.87
3909.00	99.87
3908.00	99.87
3907.00	99.87
3906.00	99.87
3905.00	99.88
3904.00	99.88
3903.00	99.88
3902.00	99.88
3901.00	99.88
3900.00	99.87
3899.00	99.88
3898.00	99.87
3897.00	99.87
3896.00	99.87
3895.00	99.87
3894.00	99.86
3893.00	99.86
3892.00	99.86
3891.00	99.87
3890.00	99.87
3889.00	99.87
3888.00	99.87
3887.00	99.87
3886.00	99.87
3885.00	99.87
3884.00	99.87
3883.00	99.88
3882.00	99.88
3881.00	99.87
3880.00	99.87
3879.00	99.88
3878.00	99.88
3877.00	99.88
3876.00	99.88
3875.00	99.88
3874.00	99.87
3873.00	99.87
3872.00	99.86
3871.00	99.86
3870.00	99.86
3869.00	99.87
3868.00	99.88
3867.00	99.88
3866.00	99.88
3865.00	99.88
3864.00	99.88
3863.00	99.88
3862.00	99.87
3861.00	99.87
3860.00	99.87
3859.00	99.87
3858.00	99.87
3857.00	99.87
3856.00	99.86
3855.00	99.86
3854.00	99.86
3853.00	99.86
3852.00	99.86
3851.00	99.87
3850.00	99.87
3849.00	99.88
3848.00	99.88
3847.00	99.88
3846.00	99.88
3845.00	99.88
3844.00	99.88
3843.00	99.89
3842.00	99.89
3841.00	99.89
3840.00	99.88
3839.00	99.88
3838.00	99.88
3837.00	99.88
3836.00	99.88
3835.00	99.87
3834.00	99.87
3833.00	99.86
3832.00	99.87
3831.00	99.87
3830.00	99.87
3829.00	99.87
3828.00	99.87
3827.00	99.87
3826.00	99.88
3825.00	99.87
3824.00	99.87
3823.00	99.87
3822.00	99.87
3821.00	99.88
3820.00	99.88
3819.00	99.88
3818.00	99.87
3817.00	99.86
3816.00	99.84
3815.00	99.84
3814.00	99.85
3813.00	99.85
3812.00	99.86
3811.00	99.87
3810.00	99.87
3809.00	99.87
3808.00	99.87
3807.00	99.86
3806.00	99.87
3805.00	99.87
3804.00	99.88
3803.00	99.88
3802.00	99.88
3801.00	99.88
3800.00	99.88
3799.00	99.88
3798.00	99.88
3797.00	99.88
3796.00	99.88
3795.00	99.88
3794.00	99.88
3793.00	99.88
3792.00	99.88
3791.00	99.88
3790.00	99.87
3789.00	99.86
3788.00	99.85
3787.00	99.84
3786.00	99.84
3785.00	99.84
3784.00	99.84
3783.00	99.84
3782.00	99.84
3781.00	99.84
3780.00	99.84
3779.00	99.84
3778.00	99.85
3777.00	99.85
3776.00	99.85
3775.00	99.86
3774.00	99.86
3773.00	99.85
3772.00	99.85
3771.00	99.85
3770.00	99.85
3769.00	99.85
3768.00	99.86
3767.00	99.86
3766.00	99.86
3765.00	99.86
3764.00	99.86
3763.00	99.86
3762.00	99.86
3761.00	99.86
3760.00	99.86
3759.00	99.86
3758.00	99.86
3757.00	99.85
3756.00	99.85
3755.00	99.85
3754.00	99.84
3753.00	99.84
3752.00	99.84
3751.00	99.83
3750.00	99.83
3749.00	99.83
3748.00	99.83
3747.00	99.84
3746.00	99.85
3745.00	99.85
3744.00	99.86
3743.00	99.87
3742.00	99.87
3741.00	99.86
3740.00	99.85
3739.00	99.85
3738.00	99.84
3737.00	99.84
3736.00	99.84
3735.00	99.85
3734.00	99.86
3733.00	99.86
3732.00	99.86
3731.00	99.85
3730.00	99.85
3729.00	99.85
3728.00	99.85
3727.00	99.85
3726.00	99.84
3725.00	99.83
3724.00	99.83
3723.00	99.83
3722.00	99.83
3721.00	99.83
3720.00	99.83
3719.00	99.82
3718.00	99.81
3717.00	99.80
3716.00	99.80
3715.00	99.79
3714.00	99.80
3713.00	99.80
3712.00	99.81
3711.00	99.81
3710.00	99.81
3709.00	99.81
3708.00	99.80
3707.00	99.80
3706.00	99.79
3705.00	99.79
3704.00	99.79
3703.00	99.79
3702.00	99.79
3701.00	99.79
3700.00	99.78
3699.00	99.78
3698.00	99.78
3697.00	99.78
3696.00	99.78
3695.00	99.78
3694.00	99.77
3693.00	99.77
3692.00	99.77
3691.00	99.76
3690.00	99.76
3689.00	99.75
3688.00	99.74
3687.00	99.73
3686.00	99.71
3685.00	99.70
3684.00	99.70
3683.00	99.69
3682.00	99.69
3681.00	99.69
3680.00	99.69
3679.00	99.69
3678.00	99.69
3677.00	99.68
3676.00	99.68
3675.00	99.67
3674.00	99.66
3673.00	99.65
3672.00	99.62
3671.00	99.60
3670.00	99.59
3669.00	99.58
3668.00	99.58
3667.00	99.57
3666.00	99.55
3665.00	99.54
3664.00	99.53
3663.00	99.51
3662.00	99.50
3661.00	99.49
3660.00	99.48
3659.00	99.47
3658.00	99.45
3657.00	99.43
3656.00	99.41
3655.00	99.39
3654.00	99.38
3653.00	99.38
3652.00	99.37
3651.00	99.36
3650.00	99.34
3649.00	99.32
3648.00	99.29
3647.00	99.27
3646.00	99.25
3645.00	99.22
3644.00	99.20
3643.00	99.17
3642.00	99.14
3641.00	99.12
3640.00	99.09
3639.00	99.07
3638.00	99.04
3637.00	99.02
3636.00	99.00
3635.00	98.98
3634.00	98.96
3633.00	98.94
3632.00	98.92
3631.00	98.90
3630.00	98.88
3629.00	98.86
3628.00	98.84
3627.00	98.81
3626.00	98.78
3625.00	98.75
3624.00	98.72
3623.00	98.70
3622.00	98.68
3621.00	98.66
3620.00	98.63
3619.00	98.60
3618.00	98.56
3617.00	98.52
3616.00	98.49
3615.00	98.45
3614.00	98.43
3613.00	98.40
3612.00	98.36
3611.00	98.33
3610.00	98.29
3609.00	98.26
3608.00	98.23
3607.00	98.20
3606.00	98.17
3605.00	98.14
3604.00	98.11
3603.00	98.07
3602.00	98.04
3601.00	98.01
3600.00	97.98
3599.00	97.95
3598.00	97.92
3597.00	97.88
3596.00	97.84
3595.00	97.80
3594.00	97.76
3593.00	97.72
3592.00	97.69
3591.00	97.65
3590.00	97.61
3589.00	97.57
3588.00	97.53
3587.00	97.48
3586.00	97.44
3585.00	97.40
3584.00	97.35
3583.00	97.31
3582.00	97.27
3581.00	97.24
3580.00	97.20
3579.00	97.15
3578.00	97.11
3577.00	97.06
3576.00	97.02
3575.00	96.97
3574.00	96.93
3573.00	96.89
3572.00	96.85
3571.00	96.81
3570.00	96.77
3569.00	96.73
3568.00	96.68
3567.00	96.64
3566.00	96.59
3565.00	96.54
3564.00	96.49
3563.00	96.44
3562.00	96.38
3561.00	96.32
3560.00	96.27
3559.00	96.22
3558.00	96.17
3557.00	96.13
3556.00	96.08
3555.00	96.03
3554.00	95.98
3553.00	95.93
3552.00	95.88
3551.00	95.83
3550.00	95.78
3549.00	95.73
3548.00	95.68
3547.00	95.63
3546.00	95.57
3545.00	95.51
3544.00	95.45
3543.00	95.40
3542.00	95.35
3541.00	95.29
3540.00	95.23
3539.00	95.18
3538.00	95.12
3537.00	95.07
3536.00	95.01
3535.00	94.96
3534.00	94.90
3533.00	94.84
3532.00	94.78
3531.00	94.72
3530.00	94.67
3529.00	94.61
3528.00	94.56
3527.00	94.51
3526.00	94.46
3525.00	94.40
3524.00	94.34
3523.00	94.29
3522.00	94.23
3521.00	94.17
3520.00	94.12
3519.00	94.06
3518.00	94.00
3517.00	93.94
3516.00	93.88
3515.00	93.82
3514.00	93.76
3513.00	93.71
3512.00	93.65
3511.00	93.59
3510.00	93.54
3509.00	93.48
3508.00	93.43
3507.00	93.39
3506.00	93.34
3505.00	93.28
3504.00	93.22
3503.00	93.16
3502.00	93.10
3501.00	93.04
3500.00	92.98
3499.00	92.93
3498.00	92.87
3497.00	92.82
3496.00	92.77
3495.00	92.72
3494.00	92.67
3493.00	92.62
3492.00	92.57
3491.00	92.52
3490.00	92.47
3489.00	92.41
3488.00	92.36
3487.00	92.31
3486.00	92.25
3485.00	92.19
3484.00	92.14
3483.00	92.09
3482.00	92.05
3481.00	92.00
3480.00	91.96
3479.00	91.91
3478.00	91.87
3477.00	91.82
3476.00	91.78
3475.00	91.73
3474.00	91.69
3473.00	91.64
3472.00	91.60
3471.00	91.56
3470.00	91.52
3469.00	91.47
3468.00	91.43
3467.00	91.38
3466.00	91.34
3465.00	91.30
3464.00	91.26
3463.00	91.22
3462.00	91.19
3461.00	91.15
3460.00	91.11
3459.00	91.07
3458.00	91.03
3457.00	90.99
3456.00	90.94
3455.00	90.89
3454.00	90.84
3453.00	90.80
3452.00	90.76
3451.00	90.72
3450.00	90.69
3449.00	90.65
3448.00	90.62
3447.00	90.58
3446.00	90.54
3445.00	90.50
3444.00	90.45
3443.00	90.41
3442.00	90.36
3441.00	90.32
3440.00	90.28
3439.00	90.24
3438.00	90.21
3437.00	90.17
3436.00	90.14
3435.00	90.11
3434.00	90.07
3433.00	90.03
3432.00	89.99
3431.00	89.95
3430.00	89.91
3429.00	89.87
3428.00	89.83
3427.00	89.79
3426.00	89.74
3425.00	89.70
3424.00	89.67
3423.00	89.63
3422.00	89.60
3421.00	89.57
3420.00	89.53
3419.00	89.48
3418.00	89.44
3417.00	89.40
3416.00	89.37
3415.00	89.34
3414.00	89.31
3413.00	89.28
3412.00	89.24
3411.00	89.20
3410.00	89.16
3409.00	89.13
3408.00	89.09
3407.00	89.06
3406.00	89.03
3405.00	89.00
3404.00	88.97
3403.00	88.94
3402.00	88.92
3401.00	88.89
3400.00	88.86
3399.00	88.82
3398.00	88.79
3397.00	88.76
3396.00	88.73
3395.00	88.70
3394.00	88.67
3393.00	88.64
3392.00	88.61
3391.00	88.58
3390.00	88.54
3389.00	88.51
3388.00	88.48
3387.00	88.45
3386.00	88.43
3385.00	88.42
3384.00	88.40
3383.00	88.38
3382.00	88.36
3381.00	88.34
3380.00	88.31
3379.00	88.29
3378.00	88.27
3377.00	88.25
3376.00	88.22
3375.00	88.20
3374.00	88.18
3373.00	88.15
3372.00	88.14
3371.00	88.12
3370.00	88.11
3369.00	88.09
3368.00	88.07
3367.00	88.05
3366.00	88.03
3365.00	88.01
3364.00	88.00
3363.00	87.98
3362.00	87.97
3361.00	87.95
3360.00	87.93
3359.00	87.91
3358.00	87.90
3357.00	87.88
3356.00	87.87
3355.00	87.85
3354.00	87.84
3353.00	87.83
3352.00	87.82
3351.00	87.81
3350.00	87.79
3349.00	87.78
3348.00	87.76
3347.00	87.74
3346.00	87.73
3345.00	87.71
3344.00	87.70
3343.00	87.69
3342.00	87.68
3341.00	87.67
3340.00	87.66
3339.00	87.65
3338.00	87.63
3337.00	87.61
3336.00	87.60
3335.00	87.59
3334.00	87.57
3333.00	87.56
3332.00	87.55
3331.00	87.54
3330.00	87.53
3329.00	87.51
3328.00	87.50
3327.00	87.49
3326.00	87.47
3325.00	87.45
3324.00	87.43
3323.00	87.41
3322.00	87.39
3321.00	87.37
3320.00	87.36
3319.00	87.35
3318.00	87.34
3317.00	87.33
3316.00	87.31
3315.00	87.30
3314.00	87.28
3313.00	87.27
3312.00	87.25
3311.00	87.23
3310.00	87.21
3309.00	87.19
3308.00	87.18
3307.00	87.17
3306.00	87.16
3305.00	87.14
3304.00	87.13
3303.00	87.10
3302.00	87.07
3301.00	87.04
3300.00	87.01
3299.00	86.99
3298.00	86.97
3297.00	86.96
3296.00	86.94
3295.00	86.93
3294.00	86.91
3293.00	86.88
3292.00	86.85
3291.00	86.83
3290.00	86.80
3289.00	86.77
3288.00	86.74
3287.00	86.72
3286.00	86.69
3285.00	86.66
3284.00	86.64
3283.00	86.62
3282.00	86.60
3281.00	86.58
3280.00	86.56
3279.00	86.54
3278.00	86.51
3277.00	86.50
3276.00	86.48
3275.00	86.47
3274.00	86.45
3273.00	86.43
3272.00	86.41
3271.00	86.39
3270.00	86.37
3269.00	86.35
3268.00	86.33
3267.00	86.31
3266.00	86.29
3265.00	86.28
3264.00	86.26
3263.00	86.24
3262.00	86.22
3261.00	86.20
3260.00	86.18
3259.00	86.16
3258.00	86.15
3257.00	86.14
3256.00	86.13
3255.00	86.12
3254.00	86.11
3253.00	86.10
3252.00	86.09
3251.00	86.09
3250.00	86.08
3249.00	86.07
3248.00	86.06
3247.00	86.05
3246.00	86.04
3245.00	86.03
3244.00	86.01
3243.00	86.00
3242.00	85.99
3241.00	85.98
3240.00	85.98
3239.00	85.97
3238.00	85.97
3237.00	85.96
3236.00	85.96
3235.00	85.95
3234.00	85.95
3233.00	85.95
3232.00	85.96
3231.00	85.96
3230.00	85.96
3229.00	85.96
3228.00	85.96
3227.00	85.95
3226.00	85.96
3225.00	85.96
3224.00	85.96
3223.00	85.96
3222.00	85.96
3221.00	85.96
3220.00	85.96
3219.00	85.97
3218.00	85.97
3217.00	85.98
3216.00	85.99
3215.00	86.00
3214.00	86.01
3213.00	86.02
3212.00	86.03
3211.00	86.04
3210.00	86.04
3209.00	86.05
3208.00	86.06
3207.00	86.07
3206.00	86.08
3205.00	86.09
3204.00	86.11
3203.00	86.13
3202.00	86.14
3201.00	86.15
3200.00	86.16
3199.00	86.17
3198.00	86.18
3197.00	86.19
3196.00	86.20
3195.00	86.22
3194.00	86.24
3193.00	86.26
3192.00	86.28
3191.00	86.29
3190.00	86.30
3189.00	86.32
3188.00	86.34
3187.00	86.36
3186.00	86.39
3185.00	86.41
3184.00	86.42
3183.00	86.43
3182.00	86.44
3181.00	86.46
3180.00	86.47
3179.00	86.49
3178.00	86.50
3177.00	86.52
3176.00	86.54
3175.00	86.57
3174.00	86.60
3173.00	86.62
3172.00	86.65
3171.00	86.67
3170.00	86.69
3169.00	86.71
3168.00	86.73
3167.00	86.75
3166.00	86.77
3165.00	86.79
3164.00	86.82
3163.00	86.85
3162.00	86.87
3161.00	86.89
3160.00	86.92
3159.00	86.94
3158.00	86.96
3157.00	86.99
3156.00	87.02
3155.00	87.07
3154.00	87.11
3153.00	87.16
3152.00	87.19
3151.00	87.22
3150.00	87.23
3149.00	87.24
3148.00	87.25
3147.00	87.27
3146.00	87.28
3145.00	87.30
3144.00	87.32
3143.00	87.36
3142.00	87.42
3141.00	87.47
3140.00	87.52
3139.00	87.56
3138.00	87.58
3137.00	87.60
3136.00	87.61
3135.00	87.62
3134.00	87.64
3133.00	87.67
3132.00	87.70
3131.00	87.74
3130.00	87.78
3129.00	87.82
3128.00	87.85
3127.00	87.88
3126.00	87.91
3125.00	87.94
3124.00	87.99
3123.00	88.04
3122.00	88.10
3121.00	88.16
3120.00	88.22
3119.00	88.26
3118.00	88.31
3117.00	88.34
3116.00	88.37
3115.00	88.38
3114.00	88.38
3113.00	88.39
3112.00	88.40
3111.00	88.44
3110.00	88.48
3109.00	88.51
3108.00	88.54
3107.00	88.56
3106.00	88.57
3105.00	88.59
3104.00	88.62
3103.00	88.65
3102.00	88.68
3101.00	88.72
3100.00	88.74
3099.00	88.77
3098.00	88.79
3097.00	88.81
3096.00	88.83
3095.00	88.86
3094.00	88.89
3093.00	88.93
3092.00	88.97
3091.00	89.01
3090.00	89.05
3089.00	89.10
3088.00	89.14
3087.00	89.18
3086.00	89.23
3085.00	89.28
3084.00	89.33
3083.00	89.38
3082.00	89.43
3081.00	89.48
3080.00	89.53
3079.00	89.57
3078.00	89.61
3077.00	89.64
3076.00	89.67
3075.00	89.69
3074.00	89.72
3073.00	89.76
3072.00	89.79
3071.00	89.82
3070.00	89.86
3069.00	89.89
3068.00	89.91
3067.00	89.93
3066.00	89.94
3065.00	89.95
3064.00	89.95
3063.00	89.95
3062.00	89.95
3061.00	89.95
3060.00	89.96
3059.00	89.96
3058.00	89.96
3057.00	89.95
3056.00	89.94
3055.00	89.93
3054.00	89.92
3053.00	89.90
3052.00	89.88
3051.00	89.86
3050.00	89.83
3049.00	89.80
3048.00	89.77
3047.00	89.74
3046.00	89.71
3045.00	89.68
3044.00	89.64
3043.00	89.60
3042.00	89.55
3041.00	89.50
3040.00	89.45
3039.00	89.39
3038.00	89.34
3037.00	89.29
3036.00	89.26
3035.00	89.23
3034.00	89.21
3033.00	89.20
3032.00	89.19
3031.00	89.20
3030.00	89.21
3029.00	89.23
3028.00	89.27
3027.00	89.31
3026.00	89.37
3025.00	89.45
3024.00	89.53
3023.00	89.63
3022.00	89.74
3021.00	89.85
3020.00	89.97
3019.00	90.09
3018.00	90.21
3017.00	90.33
3016.00	90.46
3015.00	90.58
3014.00	90.70
3013.00	90.82
3012.00	90.92
3011.00	91.01
3010.00	91.09
3009.00	91.16
3008.00	91.22
3007.00	91.28
3006.00	91.33
3005.00	91.38
3004.00	91.42
3003.00	91.46
3002.00	91.49
3001.00	91.51
3000.00	91.53
2999.00	91.55
2998.00	91.56
2997.00	91.56
2996.00	91.56
2995.00	91.56
2994.00	91.56
2993.00	91.56
2992.00	91.55
2991.00	91.54
2990.00	91.53
2989.00	91.51
2988.00	91.49
2987.00	91.47
2986.00	91.44
2985.00	91.42
2984.00	91.39
2983.00	91.36
2982.00	91.33
2981.00	91.29
2980.00	91.25
2979.00	91.20
2978.00	91.13
2977.00	91.07
2976.00	91.01
2975.00	90.95
2974.00	90.89
2973.00	90.83
2972.00	90.77
2971.00	90.72
2970.00	90.67
2969.00	90.62
2968.00	90.59
2967.00	90.56
2966.00	90.54
2965.00	90.52
2964.00	90.52
2963.00	90.52
2962.00	90.52
2961.00	90.52
2960.00	90.53
2959.00	90.55
2958.00	90.57
2957.00	90.60
2956.00	90.62
2955.00	90.65
2954.00	90.68
2953.00	90.71
2952.00	90.73
2951.00	90.75
2950.00	90.77
2949.00	90.80
2948.00	90.83
2947.00	90.86
2946.00	90.89
2945.00	90.90
2944.00	90.91
2943.00	90.91
2942.00	90.91
2941.00	90.90
2940.00	90.90
2939.00	90.90
2938.00	90.89
2937.00	90.89
2936.00	90.88
2935.00	90.87
2934.00	90.86
2933.00	90.85
2932.00	90.84
2931.00	90.82
2930.00	90.80
2929.00	90.77
2928.00	90.72
2927.00	90.68
2926.00	90.64
2925.00	90.59
2924.00	90.56
2923.00	90.52
2922.00	90.48
2921.00	90.44
2920.00	90.42
2919.00	90.40
2918.00	90.40
2917.00	90.40
2916.00	90.42
2915.00	90.45
2914.00	90.49
2913.00	90.52
2912.00	90.56
2911.00	90.60
2910.00	90.63
2909.00	90.67
2908.00	90.70
2907.00	90.74
2906.00	90.77
2905.00	90.80
2904.00	90.84
2903.00	90.88
2902.00	90.92
2901.00	90.96
2900.00	91.00
2899.00	91.04
2898.00	91.08
2897.00	91.12
2896.00	91.14
2895.00	91.17
2894.00	91.18
2893.00	91.20
2892.00	91.21
2891.00	91.23
2890.00	91.24
2889.00	91.25
2888.00	91.26
2887.00	91.27
2886.00	91.27
2885.00	91.27
2884.00	91.26
2883.00	91.25
2882.00	91.24
2881.00	91.23
2880.00	91.22
2879.00	91.21
2878.00	91.20
2877.00	91.18
2876.00	91.16
2875.00	91.15
2874.00	91.14
2873.00	91.12
2872.00	91.11
2871.00	91.09
2870.00	91.07
2869.00	91.06
2868.00	91.05
2867.00	91.04
2866.00	91.03
2865.00	91.03
2864.00	91.03
2863.00	91.04
2862.00	91.04
2861.00	91.05
2860.00	91.06
2859.00	91.06
2858.00	91.06
2857.00	91.06
2856.00	91.06
2855.00	91.06
2854.00	91.06
2853.00	91.06
2852.00	91.07
2851.00	91.08
2850.00	91.11
2849.00	91.16
2848.00	91.21
2847.00	91.27
2846.00	91.33
2845.00	91.38
2844.00	91.43
2843.00	91.48
2842.00	91.53
2841.00	91.57
2840.00	91.62
2839.00	91.66
2838.00	91.69
2837.00	91.73
2836.00	91.76
2835.00	91.79
2834.00	91.82
2833.00	91.85
2832.00	91.88
2831.00	91.91
2830.00	91.95
2829.00	91.98
2828.00	92.02
2827.00	92.07
2826.00	92.11
2825.00	92.16
2824.00	92.20
2823.00	92.24
2822.00	92.28
2821.00	92.33
2820.00	92.37
2819.00	92.42
2818.00	92.46
2817.00	92.50
2816.00	92.55
2815.00	92.59
2814.00	92.63
2813.00	92.67
2812.00	92.71
2811.00	92.76
2810.00	92.80
2809.00	92.84
2808.00	92.88
2807.00	92.91
2806.00	92.94
2805.00	92.97
2804.00	93.00
2803.00	93.04
2802.00	93.07
2801.00	93.11
2800.00	93.15
2799.00	93.18
2798.00	93.21
2797.00	93.24
2796.00	93.27
2795.00	93.29
2794.00	93.31
2793.00	93.33
2792.00	93.35
2791.00	93.37
2790.00	93.40
2789.00	93.42
2788.00	93.44
2787.00	93.45
2786.00	93.47
2785.00	93.48
2784.00	93.49
2783.00	93.51
2782.00	93.52
2781.00	93.53
2780.00	93.54
2779.00	93.55
2778.00	93.57
2777.00	93.60
2776.00	93.62
2775.00	93.63
2774.00	93.64
2773.00	93.65
2772.00	93.65
2771.00	93.65
2770.00	93.66
2769.00	93.67
2768.00	93.69
2767.00	93.70
2766.00	93.71
2765.00	93.73
2764.00	93.74
2763.00	93.76
2762.00	93.78
2761.00	93.79
2760.00	93.81
2759.00	93.82
2758.00	93.84
2757.00	93.86
2756.00	93.89
2755.00	93.90
2754.00	93.92
2753.00	93.94
2752.00	93.97
2751.00	93.99
2750.00	94.02
2749.00	94.04
2748.00	94.06
2747.00	94.07
2746.00	94.09
2745.00	94.11
2744.00	94.13
2743.00	94.15
2742.00	94.17
2741.00	94.19
2740.00	94.22
2739.00	94.24
2738.00	94.26
2737.00	94.28
2736.00	94.30
2735.00	94.32
2734.00	94.33
2733.00	94.35
2732.00	94.38
2731.00	94.40
2730.00	94.43
2729.00	94.46
2728.00	94.49
2727.00	94.52
2726.00	94.54
2725.00	94.56
2724.00	94.57
2723.00	94.58
2722.00	94.59
2721.00	94.60
2720.00	94.62
2719.00	94.63
2718.00	94.64
2717.00	94.66
2716.00	94.67
2715.00	94.68
2714.00	94.69
2713.00	94.71
2712.00	94.73
2711.00	94.74
2710.00	94.76
2709.00	94.77
2708.00	94.78
2707.00	94.79
2706.00	94.80
2705.00	94.82
2704.00	94.83
2703.00	94.85
2702.00	94.87
2701.00	94.88
2700.00	94.90
2699.00	94.92
2698.00	94.94
2697.00	94.95
2696.00	94.97
2695.00	94.98
2694.00	95.00
2693.00	95.01
2692.00	95.03
2691.00	95.04
2690.00	95.06
2689.00	95.07
2688.00	95.09
2687.00	95.10
2686.00	95.12
2685.00	95.14
2684.00	95.16
2683.00	95.18
2682.00	95.20
2681.00	95.22
2680.00	95.24
2679.00	95.25
2678.00	95.26
2677.00	95.27
2676.00	95.28
2675.00	95.30
2674.00	95.31
2673.00	95.33
2672.00	95.34
2671.00	95.35
2670.00	95.37
2669.00	95.38
2668.00	95.39
2667.00	95.41
2666.00	95.43
2665.00	95.45
2664.00	95.47
2663.00	95.49
2662.00	95.50
2661.00	95.52
2660.00	95.54
2659.00	95.55
2658.00	95.57
2657.00	95.58
2656.00	95.60
2655.00	95.62
2654.00	95.64
2653.00	95.66
2652.00	95.68
2651.00	95.69
2650.00	95.71
2649.00	95.73
2648.00	95.74
2647.00	95.76
2646.00	95.78
2645.00	95.79
2644.00	95.81
2643.00	95.82
2642.00	95.83
2641.00	95.84
2640.00	95.85
2639.00	95.87
2638.00	95.88
2637.00	95.89
2636.00	95.90
2635.00	95.91
2634.00	95.92
2633.00	95.93
2632.00	95.94
2631.00	95.95
2630.00	95.96
2629.00	95.97
2628.00	95.98
2627.00	96.00
2626.00	96.01
2625.00	96.02
2624.00	96.02
2623.00	96.03
2622.00	96.03
2621.00	96.03
2620.00	96.04
2619.00	96.05
2618.00	96.06
2617.00	96.07
2616.00	96.08
2615.00	96.08
2614.00	96.09
2613.00	96.09
2612.00	96.10
2611.00	96.11
2610.00	96.12
2609.00	96.13
2608.00	96.14
2607.00	96.14
2606.00	96.15
2605.00	96.15
2604.00	96.15
2603.00	96.15
2602.00	96.15
2601.00	96.15
2600.00	96.16
2599.00	96.17
2598.00	96.18
2597.00	96.18
2596.00	96.18
2595.00	96.18
2594.00	96.18
2593.00	96.19
2592.00	96.19
2591.00	96.19
2590.00	96.19
2589.00	96.19
2588.00	96.19
2587.00	96.19
2586.00	96.19
2585.00	96.20
2584.00	96.20
2583.00	96.20
2582.00	96.20
2581.00	96.21
2580.00	96.20
2579.00	96.20
2578.00	96.20
2577.00	96.20
2576.00	96.20
2575.00	96.20
2574.00	96.20
2573.00	96.19
2572.00	96.19
2571.00	96.18
2570.00	96.18
2569.00	96.17
2568.00	96.17
2567.00	96.18
2566.00	96.18
2565.00	96.18
2564.00	96.18
2563.00	96.18
2562.00	96.17
2561.00	96.17
2560.00	96.17
2559.00	96.17
2558.00	96.17
2557.00	96.17
2556.00	96.17
2555.00	96.18
2554.00	96.18
2553.00	96.19
2552.00	96.20
2551.00	96.21
2550.00	96.22
2549.00	96.22
2548.00	96.23
2547.00	96.23
2546.00	96.24
2545.00	96.25
2544.00	96.26
2543.00	96.27
2542.00	96.28
2541.00	96.28
2540.00	96.28
2539.00	96.29
2538.00	96.30
2537.00	96.31
2536.00	96.32
2535.00	96.32
2534.00	96.33
2533.00	96.33
2532.00	96.34
2531.00	96.34
2530.00	96.34
2529.00	96.34
2528.00	96.35
2527.00	96.35
2526.00	96.36
2525.00	96.37
2524.00	96.37
2523.00	96.38
2522.00	96.39
2521.00	96.39
2520.00	96.39
2519.00	96.40
2518.00	96.41
2517.00	96.41
2516.00	96.42
2515.00	96.42
2514.00	96.42
2513.00	96.42
2512.00	96.42
2511.00	96.42
2510.00	96.43
2509.00	96.44
2508.00	96.45
2507.00	96.46
2506.00	96.46
2505.00	96.47
2504.00	96.47
2503.00	96.47
2502.00	96.47
2501.00	96.47
2500.00	96.47
2499.00	96.47
2498.00	96.48
2497.00	96.48
2496.00	96.49
2495.00	96.50
2494.00	96.51
2493.00	96.52
2492.00	96.53
2491.00	96.54
2490.00	96.55
2489.00	96.56
2488.00	96.57
2487.00	96.59
2486.00	96.60
2485.00	96.61
2484.00	96.63
2483.00	96.64
2482.00	96.65
2481.00	96.66
2480.00	96.68
2479.00	96.69
2478.00	96.71
2477.00	96.73
2476.00	96.74
2475.00	96.76
2474.00	96.77
2473.00	96.79
2472.00	96.80
2471.00	96.81
2470.00	96.82
2469.00	96.83
2468.00	96.84
2467.00	96.85
2466.00	96.87
2465.00	96.88
2464.00	96.89
2463.00	96.91
2462.00	96.91
2461.00	96.92
2460.00	96.93
2459.00	96.94
2458.00	96.95
2457.00	96.95
2456.00	96.96
2455.00	96.97
2454.00	96.98
2453.00	96.98
2452.00	96.99
2451.00	97.00
2450.00	97.00
2449.00	97.00
2448.00	97.01
2447.00	97.01
2446.00	97.02
2445.00	97.02
2444.00	97.03
2443.00	97.04
2442.00	97.05
2441.00	97.05
2440.00	97.06
2439.00	97.06
2438.00	97.07
2437.00	97.08
2436.00	97.09
2435.00	97.10
2434.00	97.11
2433.00	97.12
2432.00	97.13
2431.00	97.14
2430.00	97.15
2429.00	97.15
2428.00	97.16
2427.00	97.17
2426.00	97.17
2425.00	97.18
2424.00	97.19
2423.00	97.19
2422.00	97.19
2421.00	97.19
2420.00	97.19
2419.00	97.20
2418.00	97.21
2417.00	97.22
2416.00	97.23
2415.00	97.24
2414.00	97.25
2413.00	97.25
2412.00	97.26
2411.00	97.27
2410.00	97.27
2409.00	97.28
2408.00	97.29
2407.00	97.31
2406.00	97.32
2405.00	97.33
2404.00	97.34
2403.00	97.35
2402.00	97.35
2401.00	97.36
2400.00	97.36
2399.00	97.37
2398.00	97.37
2397.00	97.38
2396.00	97.38
2395.00	97.39
2394.00	97.39
2393.00	97.40
2392.00	97.40
2391.00	97.41
2390.00	97.41
2389.00	97.41
2388.00	97.41
2387.00	97.41
2386.00	97.41
2385.00	97.42
2384.00	97.42
2383.00	97.43
2382.00	97.43
2381.00	97.43
2380.00	97.43
2379.00	97.44
2378.00	97.44
2377.00	97.44
2376.00	97.44
2375.00	97.45
2374.00	97.45
2373.00	97.46
2372.00	97.47
2371.00	97.48
2370.00	97.49
2369.00	97.50
2368.00	97.52
2367.00	97.54
2366.00	97.55
2365.00	97.55
2364.00	97.54
2363.00	97.54
2362.00	97.53
2361.00	97.52
2360.00	97.52
2359.00	97.53
2358.00	97.55
2357.00	97.59
2356.00	97.61
2355.00	97.63
2354.00	97.64
2353.00	97.64
2352.00	97.63
2351.00	97.63
2350.00	97.63
2349.00	97.63
2348.00	97.63
2347.00	97.63
2346.00	97.64
2345.00	97.64
2344.00	97.65
2343.00	97.65
2342.00	97.65
2341.00	97.64
2340.00	97.65
2339.00	97.66
2338.00	97.67
2337.00	97.69
2336.00	97.70
2335.00	97.71
2334.00	97.71
2333.00	97.72
2332.00	97.73
2331.00	97.73
2330.00	97.72
2329.00	97.71
2328.00	97.70
2327.00	97.70
2326.00	97.71
2325.00	97.72
2324.00	97.74
2323.00	97.74
2322.00	97.74
2321.00	97.73
2320.00	97.73
2319.00	97.74
2318.00	97.74
2317.00	97.75
2316.00	97.75
2315.00	97.75
2314.00	97.75
2313.00	97.75
2312.00	97.75
2311.00	97.75
2310.00	97.76
2309.00	97.77
2308.00	97.78
2307.00	97.78
2306.00	97.78
2305.00	97.78
2304.00	97.77
2303.00	97.77
2302.00	97.77
2301.00	97.76
2300.00	97.76
2299.00	97.76
2298.00	97.76
2297.00	97.76
2296.00	97.76
2295.00	97.77
2294.00	97.77
2293.00	97.77
2292.00	97.78
2291.00	97.78
2290.00	97.77
2289.00	97.77
2288.00	97.77
2287.00	97.77
2286.00	97.77
2285.00	97.77
2284.00	97.77
2283.00	97.77
2282.00	97.77
2281.00	97.77
2280.00	97.78
2279.00	97.78
2278.00	97.78
2277.00	97.78
2276.00	97.78
2275.00	97.78
2274.00	97.79
2273.00	97.79
2272.00	97.79
2271.00	97.79
2270.00	97.79
2269.00	97.79
2268.00	97.79
2267.00	97.80
2266.00	97.80
2265.00	97.80
2264.00	97.80
2263.00	97.80
2262.00	97.80
2261.00	97.80
2260.00	97.80
2259.00	97.81
2258.00	97.81
2257.00	97.82
2256.00	97.82
2255.00	97.82
2254.00	97.82
2253.00	97.82
2252.00	97.82
2251.00	97.82
2250.00	97.82
2249.00	97.82
2248.00	97.82
2247.00	97.82
2246.00	97.82
2245.00	97.81
2244.00	97.81
2243.00	97.80
2242.00	97.80
2241.00	97.80
2240.00	97.80
2239.00	97.80
2238.00	97.80
2237.00	97.80
2236.00	97.79
2235.00	97.79
2234.00	97.80
2233.00	97.80
2232.00	97.80
2231.00	97.80
2230.00	97.79
2229.00	97.79
2228.00	97.79
2227.00	97.79
2226.00	97.79
2225.00	97.78
2224.00	97.78
2223.00	97.78
2222.00	97.78
2221.00	97.78
2220.00	97.78
2219.00	97.78
2218.00	97.78
2217.00	97.78
2216.00	97.77
2215.00	97.76
2214.00	97.76
2213.00	97.76
2212.00	97.76
2211.00	97.76
2210.00	97.76
2209.00	97.76
2208.00	97.76
2207.00	97.77
2206.00	97.76
2205.00	97.76
2204.00	97.76
2203.00	97.75
2202.00	97.75
2201.00	97.75
2200.00	97.75
2199.00	97.75
2198.00	97.75
2197.00	97.74
2196.00	97.74
2195.00	97.73
2194.00	97.73
2193.00	97.72
2192.00	97.72
2191.00	97.72
2190.00	97.73
2189.00	97.73
2188.00	97.73
2187.00	97.73
2186.00	97.73
2185.00	97.73
2184.00	97.73
2183.00	97.72
2182.00	97.72
2181.00	97.72
2180.00	97.72
2179.00	97.72
2178.00	97.72
2177.00	97.72
2176.00	97.72
2175.00	97.72
2174.00	97.72
2173.00	97.72
2172.00	97.72
2171.00	97.73
2170.00	97.73
2169.00	97.73
2168.00	97.73
2167.00	97.72
2166.00	97.71
2165.00	97.70
2164.00	97.70
2163.00	97.71
2162.00	97.71
2161.00	97.71
2160.00	97.72
2159.00	97.72
2158.00	97.71
2157.00	97.71
2156.00	97.71
2155.00	97.71
2154.00	97.71
2153.00	97.71
2152.00	97.71
2151.00	97.71
2150.00	97.71
2149.00	97.71
2148.00	97.71
2147.00	97.71
2146.00	97.71
2145.00	97.71
2144.00	97.70
2143.00	97.70
2142.00	97.69
2141.00	97.69
2140.00	97.68
2139.00	97.68
2138.00	97.68
2137.00	97.69
2136.00	97.69
2135.00	97.69
2134.00	97.69
2133.00	97.70
2132.00	97.70
2131.00	97.70
2130.00	97.70
2129.00	97.70
2128.00	97.70
2127.00	97.71
2126.00	97.71
2125.00	97.72
2124.00	97.72
2123.00	97.72
2122.00	97.73
2121.00	97.73
2120.00	97.73
2119.00	97.73
2118.00	97.73
2117.00	97.73
2116.00	97.73
2115.00	97.73
2114.00	97.73
2113.00	97.72
2112.00	97.72
2111.00	97.72
2110.00	97.72
2109.00	97.72
2108.00	97.72
2107.00	97.72
2106.00	97.72
2105.00	97.72
2104.00	97.71
2103.00	97.71
2102.00	97.71
2101.00	97.71
2100.00	97.71
2099.00	97.71
2098.00	97.71
2097.00	97.71
2096.00	97.70
2095.00	97.71
2094.00	97.71
2093.00	97.71
2092.00	97.71
2091.00	97.71
2090.00	97.71
2089.00	97.71
2088.00	97.71
2087.00	97.71
2086.00	97.71
2085.00	97.71
2084.00	97.71
2083.00	97.71
2082.00	97.72
2081.00	97.72
2080.00	97.73
2079.00	97.73
2078.00	97.73
2077.00	97.73
2076.00	97.73
2075.00	97.72
2074.00	97.72
2073.00	97.71
2072.00	97.71
2071.00	97.71
2070.00	97.71
2069.00	97.70
2068.00	97.69
2067.00	97.69
2066.00	97.68
2065.00	97.68
2064.00	97.68
2063.00	97.68
2062.00	97.68
2061.00	97.67
2060.00	97.66
2059.00	97.65
2058.00	97.65
2057.00	97.64
2056.00	97.64
2055.00	97.64
2054.00	97.63
2053.00	97.63
2052.00	97.63
2051.00	97.62
2050.00	97.62
2049.00	97.61
2048.00	97.60
2047.00	97.59
2046.00	97.58
2045.00	97.57
2044.00	97.57
2043.00	97.56
2042.00	97.55
2041.00	97.55
2040.00	97.54
2039.00	97.54
2038.00	97.53
2037.00	97.53
2036.00	97.52
2035.00	97.52
2034.00	97.51
2033.00	97.51
2032.00	97.51
2031.00	97.51
2030.00	97.51
2029.00	97.51
2028.00	97.50
2027.00	97.50
2026.00	97.50
2025.00	97.49
2024.00	97.49
2023.00	97.48
2022.00	97.46
2021.00	97.47
2020.00	97.46
2019.00	97.45
2018.00	97.45
2017.00	97.44
2016.00	97.44
2015.00	97.43
2014.00	97.42
2013.00	97.42
2012.00	97.42
2011.00	97.41
2010.00	97.40
2009.00	97.39
2008.00	97.38
2007.00	97.38
2006.00	97.37
2005.00	97.37
2004.00	97.36
2003.00	97.35
2002.00	97.34
2001.00	97.34
2000.00	97.33
1999.00	97.33
1998.00	97.33
1997.00	97.33
1996.00	97.32
1995.00	97.31
1994.00	97.28
1993.00	97.27
1992.00	97.26
1991.00	97.25
1990.00	97.26
1989.00	97.26
1988.00	97.27
1987.00	97.26
1986.00	97.26
1985.00	97.26
1984.00	97.25
1983.00	97.24
1982.00	97.23
1981.00	97.22
1980.00	97.21
1979.00	97.21
1978.00	97.20
1977.00	97.19
1976.00	97.18
1975.00	97.17
1974.00	97.16
1973.00	97.14
1972.00	97.13
1971.00	97.12
1970.00	97.11
1969.00	97.10
1968.00	97.10
1967.00	97.10
1966.00	97.11
1965.00	97.12
1964.00	97.12
1963.00	97.12
1962.00	97.11
1961.00	97.11
1960.00	97.10
1959.00	97.10
1958.00	97.09
1957.00	97.08
1956.00	97.08
1955.00	97.07
1954.00	97.07
1953.00	97.06
1952.00	97.06
1951.00	97.06
1950.00	97.06
1949.00	97.05
1948.00	97.05
1947.00	97.04
1946.00	97.03
1945.00	97.03
1944.00	97.03
1943.00	97.03
1942.00	97.03
1941.00	97.03
1940.00	97.02
1939.00	97.01
1938.00	97.01
1937.00	97.00
1936.00	96.99
1935.00	96.99
1934.00	96.98
1933.00	96.98
1932.00	96.98
1931.00	96.97
1930.00	96.97
1929.00	96.96
1928.00	96.96
1927.00	96.94
1926.00	96.93
1925.00	96.91
1924.00	96.90
1923.00	96.89
1922.00	96.88
1921.00	96.88
1920.00	96.88
1919.00	96.88
1918.00	96.89
1917.00	96.91
1916.00	96.92
1915.00	96.92
1914.00	96.92
1913.00	96.92
1912.00	96.91
1911.00	96.90
1910.00	96.89
1909.00	96.89
1908.00	96.90
1907.00	96.90
1906.00	96.91
1905.00	96.91
1904.00	96.91
1903.00	96.91
1902.00	96.90
1901.00	96.90
1900.00	96.89
1899.00	96.89
1898.00	96.89
1897.00	96.88
1896.00	96.87
1895.00	96.86
1894.00	96.85
1893.00	96.84
1892.00	96.83
1891.00	96.82
1890.00	96.82
1889.00	96.83
1888.00	96.84
1887.00	96.85
1886.00	96.86
1885.00	96.86
1884.00	96.87
1883.00	96.86
1882.00	96.86
1881.00	96.86
1880.00	96.85
1879.00	96.86
1878.00	96.85
1877.00	96.84
1876.00	96.84
1875.00	96.83
1874.00	96.83
1873.00	96.83
1872.00	96.83
1871.00	96.84
1870.00	96.85
1869.00	96.85
1868.00	96.86
1867.00	96.85
1866.00	96.85
1865.00	96.84
1864.00	96.84
1863.00	96.83
1862.00	96.83
1861.00	96.83
1860.00	96.81
1859.00	96.81
1858.00	96.82
1857.00	96.82
1856.00	96.83
1855.00	96.83
1854.00	96.83
1853.00	96.83
1852.00	96.82
1851.00	96.80
1850.00	96.78
1849.00	96.76
1848.00	96.73
1847.00	96.71
1846.00	96.69
1845.00	96.69
1844.00	96.70
1843.00	96.72
1842.00	96.74
1841.00	96.76
1840.00	96.76
1839.00	96.76
1838.00	96.76
1837.00	96.76
1836.00	96.75
1835.00	96.75
1834.00	96.73
1833.00	96.71
1832.00	96.69
1831.00	96.69
1830.00	96.68
1829.00	96.68
1828.00	96.77
1827.00	96.76
1826.00	96.75
1825.00	96.74
1824.00	96.74
1823.00	96.73
1822.00	96.72
1821.00	96.71
1820.00	96.71
1819.00	96.70
1818.00	96.69
1817.00	96.68
1816.00	96.67
1815.00	96.67
1814.00	96.66
1813.00	96.66
1812.00	96.65
1811.00	96.65
1810.00	96.64
1809.00	96.63
1808.00	96.62
1807.00	96.61
1806.00	96.59
1805.00	96.58
1804.00	96.58
1803.00	96.57
1802.00	96.56
1801.00	96.55
1800.00	96.54
1799.00	96.43
1798.00	96.43
1797.00	96.41
1796.00	96.38
1795.00	96.36
1794.00	96.33
1793.00	96.31
1792.00	96.30
1791.00	96.30
1790.00	96.30
1789.00	96.31
1788.00	96.29
1787.00	96.26
1786.00	96.23
1785.00	96.21
1784.00	96.20
1783.00	96.20
1782.00	96.19
1781.00	96.19
1780.00	96.18
1779.00	96.16
1778.00	96.15
1777.00	96.13
1776.00	96.10
1775.00	96.18
1774.00	96.17
1773.00	96.16
1772.00	96.14
1771.00	96.12
1770.00	96.09
1769.00	96.06
1768.00	96.03
1767.00	96.00
1766.00	95.97
1765.00	95.94
1764.00	95.91
1763.00	95.88
1762.00	95.84
1761.00	95.81
1760.00	95.65
1759.00	95.61
1758.00	95.57
1757.00	95.54
1756.00	95.50
1755.00	95.46
1754.00	95.40
1753.00	95.31
1752.00	95.22
1751.00	95.14
1750.00	95.07
1749.00	95.01
1748.00	94.96
1747.00	94.89
1746.00	94.80
1745.00	94.71
1744.00	94.61
1743.00	94.51
1742.00	94.42
1741.00	94.32
1740.00	94.21
1739.00	94.09
1738.00	93.95
1737.00	93.81
1736.00	93.66
1735.00	93.50
1734.00	93.33
1733.00	93.15
1732.00	92.98
1731.00	92.82
1730.00	92.67
1729.00	92.53
1728.00	92.38
1727.00	92.22
1726.00	92.05
1725.00	91.86
1724.00	91.67
1723.00	91.48
1722.00	91.28
1721.00	91.09
1720.00	90.90
1719.00	90.71
1718.00	90.52
1717.00	90.33
1716.00	90.15
1715.00	89.98
1714.00	89.83
1713.00	89.68
1712.00	89.54
1711.00	89.40
1710.00	89.25
1709.00	89.10
1708.00	88.95
1707.00	88.80
1706.00	88.67
1705.00	88.53
1704.00	88.41
1703.00	88.30
1702.00	88.21
1701.00	88.14
1700.00	88.11
1699.00	88.09
1698.00	88.07
1697.00	88.05
1696.00	88.03
1695.00	88.01
1694.00	87.99
1693.00	87.95
1692.00	87.92
1691.00	87.90
1690.00	87.88
1689.00	87.89
1688.00	87.90
1687.00	87.92
1686.00	87.95
1685.00	87.99
1684.00	88.02
1683.00	88.04
1682.00	88.05
1681.00	88.06
1680.00	88.08
1679.00	88.10
1678.00	88.11
1677.00	88.12
1676.00	88.12
1675.00	88.14
1674.00	88.15
1673.00	88.14
1672.00	88.12
1671.00	88.10
1670.00	88.09
1669.00	88.09
1668.00	88.08
1667.00	88.06
1666.00	88.02
1665.00	87.98
1664.00	87.94
1663.00	87.90
1662.00	87.86
1661.00	87.83
1660.00	87.78
1659.00	87.73
1658.00	87.65
1657.00	87.58
1656.00	87.52
1655.00	87.48
1654.00	87.48
1653.00	87.46
1652.00	87.39
1651.00	87.27
1650.00	87.11
1649.00	86.95
1648.00	86.81
1647.00	86.67
1646.00	86.53
1645.00	86.41
1644.00	86.31
1643.00	86.22
1642.00	86.16
1641.00	86.12
1640.00	86.10
1639.00	86.10
1638.00	86.14
1637.00	86.21
1636.00	86.30
1635.00	86.39
1634.00	86.44
1633.00	86.46
1632.00	86.46
1631.00	86.45
1630.00	86.46
1629.00	86.47
1628.00	86.49
1627.00	86.50
1626.00	86.51
1625.00	86.52
1624.00	86.53
1623.00	86.53
1622.00	86.53
1621.00	86.50
1620.00	86.47
1619.00	86.44
1618.00	86.38
1617.00	86.30
1616.00	86.16
1615.00	86.00
1614.00	85.81
1613.00	85.61
1612.00	85.39
1611.00	85.14
1610.00	84.86
1609.00	84.55
1608.00	84.21
1607.00	83.84
1606.00	83.43
1605.00	83.00
1604.00	82.53
1603.00	82.01
1602.00	81.46
1601.00	80.87
1600.00	80.24
1599.00	79.58
1598.00	78.88
1597.00	78.15
1596.00	77.37
1595.00	76.55
1594.00	75.70
1593.00	74.82
1592.00	73.92
1591.00	73.00
1590.00	72.06
1589.00	71.11
1588.00	70.14
1587.00	69.16
1586.00	68.18
1585.00	67.19
1584.00	66.20
1583.00	65.22
1582.00	64.25
1581.00	63.32
1580.00	62.45
1579.00	61.62
1578.00	60.79
1577.00	59.89
1576.00	58.95
1575.00	58.07
1574.00	57.34
1573.00	56.74
1572.00	56.21
1571.00	55.70
1570.00	55.23
1569.00	54.82
1568.00	54.52
1567.00	54.32
1566.00	54.22
1565.00	54.19
1564.00	54.23
1563.00	54.30
1562.00	54.43
1561.00	54.65
1560.00	55.12
1559.00	55.89
1558.00	56.74
1557.00	57.47
1556.00	58.12
1555.00	58.80
1554.00	59.56
1553.00	60.38
1552.00	61.22
1551.00	62.09
1550.00	63.01
1549.00	63.95
1548.00	64.84
1547.00	65.67
1546.00	66.48
1545.00	67.31
1544.00	68.17
1543.00	69.03
1542.00	69.92
1541.00	70.90
1540.00	71.96
1539.00	72.92
1538.00	73.63
1537.00	74.13
1536.00	74.55
1535.00	75.02
1534.00	75.59
1533.00	76.20
1532.00	76.78
1531.00	77.26
1530.00	77.66
1529.00	78.02
1528.00	78.39
1527.00	78.78
1526.00	79.16
1525.00	79.51
1524.00	79.83
1523.00	80.14
1522.00	80.45
1521.00	80.75
1520.00	81.01
1519.00	81.22
1518.00	81.40
1517.00	81.58
1516.00	81.76
1515.00	81.91
1514.00	82.03
1513.00	82.10
1512.00	82.13
1511.00	82.12
1510.00	82.10
1509.00	82.07
1508.00	82.05
1507.00	82.00
1506.00	81.85
1505.00	81.61
1504.00	81.27
1503.00	80.85
1502.00	80.34
1501.00	79.73
1500.00	79.02
1499.00	78.20
1498.00	77.29
1497.00	76.29
1496.00	75.29
1495.00	74.37
1494.00	73.58
1493.00	72.91
1492.00	72.32
1491.00	71.79
1490.00	71.35
1489.00	71.00
1488.00	70.70
1487.00	70.43
1486.00	70.15
1485.00	69.84
1484.00	69.52
1483.00	69.19
1482.00	68.87
1481.00	68.60
1480.00	68.40
1479.00	68.28
1478.00	68.27
1477.00	68.37
1476.00	68.59
1475.00	68.93
1474.00	69.41
1473.00	70.03
1472.00	70.73
1471.00	71.43
1470.00	72.05
1469.00	72.61
1468.00	73.14
1467.00	73.67
1466.00	74.23
1465.00	74.80
1464.00	75.32
1463.00	75.76
1462.00	76.09
1461.00	76.34
1460.00	76.56
1459.00	76.81
1458.00	77.12
1457.00	77.49
1456.00	77.85
1455.00	78.12
1454.00	78.32
1453.00	78.47
1452.00	78.60
1451.00	78.72
1450.00	78.82
1449.00	78.93
1448.00	79.03
1447.00	79.15
1446.00	79.26
1445.00	79.36
1444.00	79.45
1443.00	79.53
1442.00	79.60
1441.00	79.65
1440.00	79.67
1439.00	79.66
1438.00	79.64
1437.00	79.62
1436.00	79.62
1435.00	79.58
1434.00	79.51
1433.00	79.37
1432.00	79.17
1431.00	78.92
1430.00	78.63
1429.00	78.30
1428.00	77.94
1427.00	77.55
1426.00	77.14
1425.00	76.71
1424.00	76.28
1423.00	75.87
1422.00	75.51
1421.00	75.17
1420.00	74.88
1419.00	74.67
1418.00	74.55
1417.00	74.53
1416.00	74.57
1415.00	74.66
1414.00	74.76
1413.00	74.88
1412.00	75.01
1411.00	75.13
1410.00	75.23
1409.00	75.28
1408.00	75.27
1407.00	75.20
1406.00	75.06
1405.00	74.87
1404.00	74.64
1403.00	74.38
1402.00	74.08
1401.00	73.75
1400.00	73.39
1399.00	73.03
1398.00	72.68
1397.00	72.36
1396.00	72.06
1395.00	71.77
1394.00	71.50
1393.00	71.24
1392.00	70.99
1391.00	70.71
1390.00	70.39
1389.00	70.01
1388.00	69.59
1387.00	69.14
1386.00	68.67
1385.00	68.18
1384.00	67.66
1383.00	67.11
1382.00	66.52
1381.00	65.91
1380.00	65.30
1379.00	64.69
1378.00	64.11
1377.00	63.55
1376.00	63.01
1375.00	62.50
1374.00	62.05
1373.00	61.66
1372.00	61.36
1371.00	61.13
1370.00	60.98
1369.00	60.91
1368.00	60.92
1367.00	61.00
1366.00	61.15
1365.00	61.38
1364.00	61.69
1363.00	62.11
1362.00	62.62
1361.00	63.18
1360.00	63.77
1359.00	64.36
1358.00	64.97
1357.00	65.59
1356.00	66.22
1355.00	66.85
1354.00	67.49
1353.00	68.11
1352.00	68.73
1351.00	69.34
1350.00	69.95
1349.00	70.53
1348.00	71.10
1347.00	71.64
1346.00	72.15
1345.00	72.63
1344.00	73.08
1343.00	73.50
1342.00	73.88
1341.00	74.25
1340.00	74.63
1339.00	75.01
1338.00	75.40
1337.00	75.78
1336.00	76.15
1335.00	76.50
1334.00	76.83
1333.00	77.15
1332.00	77.45
1331.00	77.73
1330.00	78.00
1329.00	78.26
1328.00	78.49
1327.00	78.71
1326.00	78.92
1325.00	79.12
1324.00	79.31
1323.00	79.48
1322.00	79.65
1321.00	79.80
1320.00	79.94
1319.00	80.08
1318.00	80.22
1317.00	80.37
1316.00	80.51
1315.00	80.66
1314.00	80.80
1313.00	80.94
1312.00	81.08
1311.00	81.22
1310.00	81.36
1309.00	81.48
1308.00	81.60
1307.00	81.72
1306.00	81.83
1305.00	81.93
1304.00	82.02
1303.00	82.11
1302.00	82.20
1301.00	82.27
1300.00	82.34
1299.00	82.40
1298.00	82.45
1297.00	82.50
1296.00	82.54
1295.00	82.57
1294.00	82.59
1293.00	82.60
1292.00	82.60
1291.00	82.57
1290.00	82.52
1289.00	82.46
1288.00	82.39
1287.00	82.32
1286.00	82.25
1285.00	82.18
1284.00	82.13
1283.00	82.08
1282.00	82.05
1281.00	82.03
1280.00	82.02
1279.00	82.02
1278.00	82.01
1277.00	82.00
1276.00	81.98
1275.00	81.96
1274.00	81.94
1273.00	81.92
1272.00	81.92
1271.00	81.94
1270.00	81.99
1269.00	82.07
1268.00	82.18
1267.00	82.30
1266.00	82.44
1265.00	82.57
1264.00	82.70
1263.00	82.82
1262.00	82.93
1261.00	83.03
1260.00	83.11
1259.00	83.17
1258.00	83.21
1257.00	83.21
1256.00	83.20
1255.00	83.16
1254.00	83.10
1253.00	83.01
1252.00	82.89
1251.00	82.75
1250.00	82.58
1249.00	82.38
1248.00	82.15
1247.00	81.90
1246.00	81.63
1245.00	81.35
1244.00	81.06
1243.00	80.78
1242.00	80.53
1241.00	80.33
1240.00	80.17
1239.00	80.09
1238.00	80.08
1237.00	80.15
1236.00	80.28
1235.00	80.47
1234.00	80.69
1233.00	80.94
1232.00	81.18
1231.00	81.41
1230.00	81.60
1229.00	81.75
1228.00	81.85
1227.00	81.91
1226.00	81.93
1225.00	81.90
1224.00	81.84
1223.00	81.74
1222.00	81.61
1221.00	81.45
1220.00	81.28
1219.00	81.09
1218.00	80.90
1217.00	80.70
1216.00	80.50
1215.00	80.31
1214.00	80.14
1213.00	79.98
1212.00	79.85
1211.00	79.73
1210.00	79.65
1209.00	79.60
1208.00	79.60
1207.00	79.63
1206.00	79.70
1205.00	79.81
1204.00	79.95
1203.00	80.12
1202.00	80.30
1201.00	80.50
1200.00	80.72
1199.00	80.93
1198.00	81.15
1197.00	81.37
1196.00	81.58
1195.00	81.77
1194.00	81.95
1193.00	82.11
1192.00	82.25
1191.00	82.37
1190.00	82.47
1189.00	82.55
1188.00	82.61
1187.00	82.64
1186.00	82.65
1185.00	82.64
1184.00	82.61
1183.00	82.56
1182.00	82.50
1181.00	82.41
1180.00	82.31
1179.00	82.20
1178.00	82.09
1177.00	81.97
1176.00	81.85
1175.00	81.73
1174.00	81.62
1173.00	81.52
1172.00	81.42
1171.00	81.34
1170.00	81.28
1169.00	81.23
1168.00	81.21
1167.00	81.21
1166.00	81.22
1165.00	81.26
1164.00	81.31
1163.00	81.38
1162.00	81.46
1161.00	81.56
1160.00	81.66
1159.00	81.77
1158.00	81.89
1157.00	82.00
1156.00	82.12
1155.00	82.23
1154.00	82.34
1153.00	82.43
1152.00	82.50
1151.00	82.53
1150.00	82.54
1149.00	82.51
1148.00	82.43
1147.00	82.31
1146.00	82.16
1145.00	81.96
1144.00	81.73
1143.00	81.47
1142.00	81.20
1141.00	80.94
1140.00	80.71
1139.00	80.52
1138.00	80.38
1137.00	80.32
1136.00	80.34
1135.00	80.45
1134.00	80.64
1133.00	80.91
1132.00	81.25
1131.00	81.63
1130.00	82.05
1129.00	82.47
1128.00	82.87
1127.00	83.25
1126.00	83.58
1125.00	83.87
1124.00	84.12
1123.00	84.34
1122.00	84.53
1121.00	84.69
1120.00	84.81
1119.00	84.91
1118.00	84.98
1117.00	85.03
1116.00	85.06
1115.00	85.08
1114.00	85.09
1113.00	85.07
1112.00	85.03
1111.00	84.96
1110.00	84.86
1109.00	84.72
1108.00	84.54
1107.00	84.29
1106.00	83.98
1105.00	83.59
1104.00	83.09
1103.00	82.50
1102.00	81.79
1101.00	80.98
1100.00	80.07
1099.00	79.07
1098.00	78.00
1097.00	76.87
1096.00	75.71
1095.00	74.54
1094.00	73.41
1093.00	72.34
1092.00	71.36
1091.00	70.50
1090.00	69.77
1089.00	69.21
1088.00	68.82
1087.00	68.61
1086.00	68.58
1085.00	68.73
1084.00	69.05
1083.00	69.51
1082.00	70.10
1081.00	70.78
1080.00	71.53
1079.00	72.31
1078.00	73.10
1077.00	73.86
1076.00	74.58
1075.00	75.23
1074.00	75.80
1073.00	76.28
1072.00	76.67
1071.00	76.96
1070.00	77.15
1069.00	77.25
1068.00	77.26
1067.00	77.19
1066.00	77.04
1065.00	76.82
1064.00	76.57
1063.00	76.28
1062.00	75.98
1061.00	75.68
1060.00	75.41
1059.00	75.17
1058.00	74.98
1057.00	74.83
1056.00	74.74
1055.00	74.70
1054.00	74.73
1053.00	74.84
1052.00	75.02
1051.00	75.29
1050.00	75.64
1049.00	76.08
1048.00	76.59
1047.00	77.15
1046.00	77.75
1045.00	78.36
1044.00	78.97
1043.00	79.55
1042.00	80.10
1041.00	80.61
1040.00	81.06
1039.00	81.47
1038.00	81.82
1037.00	82.13
1036.00	82.39
1035.00	82.62
1034.00	82.81
1033.00	82.97
1032.00	83.11
1031.00	83.21
1030.00	83.29
1029.00	83.34
1028.00	83.36
1027.00	83.37
1026.00	83.36
1025.00	83.32
1024.00	83.26
1023.00	83.16
1022.00	83.01
1021.00	82.82
1020.00	82.59
1019.00	82.31
1018.00	82.00
1017.00	81.64
1016.00	81.24
1015.00	80.82
1014.00	80.37
1013.00	79.91
1012.00	79.46
1011.00	79.03
1010.00	78.64
1009.00	78.33
1008.00	78.11
1007.00	78.01
1006.00	78.02
1005.00	78.15
1004.00	78.39
1003.00	78.74
1002.00	79.15
1001.00	79.62
1000.00	80.11
999.00	80.59
998.00	81.04
997.00	81.45
996.00	81.81
995.00	82.13
994.00	82.39
993.00	82.62
992.00	82.80
991.00	82.94
990.00	83.04
989.00	83.11
988.00	83.15
987.00	83.16
986.00	83.15
985.00	83.10
984.00	83.02
983.00	82.90
982.00	82.73
981.00	82.52
980.00	82.25
979.00	81.94
978.00	81.58
977.00	81.18
976.00	80.76
975.00	80.32
974.00	79.89
973.00	79.46
972.00	79.02
971.00	78.54
970.00	77.96
969.00	77.22
968.00	76.28
967.00	75.10
966.00	73.70
965.00	72.09
964.00	70.34
963.00	68.55
962.00	66.82
961.00	65.22
960.00	63.81
959.00	62.61
958.00	61.60
957.00	60.73
956.00	59.99
955.00	59.35
954.00	58.84
953.00	58.52
952.00	58.46
951.00	58.72
950.00	59.30
949.00	60.20
948.00	61.36
947.00	62.67
946.00	64.06
945.00	65.42
944.00	66.69
943.00	67.82
942.00	68.80
941.00	69.63
940.00	70.33
939.00	70.91
938.00	71.42
937.00	71.85
936.00	72.21
935.00	72.53
934.00	72.79
933.00	73.01
932.00	73.20
931.00	73.36
930.00	73.50
929.00	73.64
928.00	73.77
927.00	73.92
926.00	74.10
925.00	74.31
924.00	74.59
923.00	74.91
922.00	75.30
921.00	75.73
920.00	76.19
919.00	76.68
918.00	77.18
917.00	77.67
916.00	78.16
915.00	78.62
914.00	79.04
913.00	79.43
912.00	79.78
911.00	80.10
910.00	80.37
909.00	80.59
908.00	80.77
907.00	80.90
906.00	80.98
905.00	81.02
904.00	81.02
903.00	80.99
902.00	80.91
901.00	80.80
900.00	80.67
899.00	80.52
898.00	80.35
897.00	80.16
896.00	79.96
895.00	79.75
894.00	79.54
893.00	79.34
892.00	79.15
891.00	78.97
890.00	78.81
889.00	78.67
888.00	78.56
887.00	78.47
886.00	78.39
885.00	78.33
884.00	78.26
883.00	78.20
882.00	78.14
881.00	78.07
880.00	77.99
879.00	77.88
878.00	77.73
877.00	77.52
876.00	77.23
875.00	76.85
874.00	76.37
873.00	75.80
872.00	75.17
871.00	74.50
870.00	73.83
869.00	73.20
868.00	72.65
867.00	72.23
866.00	71.96
865.00	71.87
864.00	71.94
863.00	72.16
862.00	72.49
861.00	72.92
860.00	73.39
859.00	73.89
858.00	74.38
857.00	74.83
856.00	75.25
855.00	75.62
854.00	75.94
853.00	76.20
852.00	76.42
851.00	76.57
850.00	76.65
849.00	76.65
848.00	76.56
847.00	76.35
846.00	76.05
845.00	75.65
844.00	75.18
843.00	74.66
842.00	74.13
841.00	73.62
840.00	73.16
839.00	72.80
838.00	72.57
837.00	72.49
836.00	72.54
835.00	72.72
834.00	72.97
833.00	73.27
832.00	73.60
831.00	73.92
830.00	74.23
829.00	74.51
828.00	74.75
827.00	74.93
826.00	75.07
825.00	75.16
824.00	75.22
823.00	75.25
822.00	75.26
821.00	75.27
820.00	75.28
819.00	75.31
818.00	75.34
817.00	75.39
816.00	75.44
815.00	75.50
814.00	75.56
813.00	75.62
812.00	75.67
811.00	75.70
810.00	75.73
809.00	75.75
808.00	75.76
807.00	75.78
806.00	75.79
805.00	75.80
804.00	75.80
803.00	75.79
802.00	75.78
801.00	75.78
800.00	75.78
799.00	75.79
798.00	75.78
797.00	75.78
796.00	75.77
795.00	75.76
794.00	75.74
793.00	75.72
792.00	75.70
791.00	75.67
790.00	75.64
789.00	75.61
788.00	75.58
787.00	75.55
786.00	75.52
785.00	75.48
784.00	75.43
783.00	75.37
782.00	75.29
781.00	75.20
780.00	75.11
779.00	75.00
778.00	74.89
777.00	74.77
776.00	74.64
775.00	74.50
774.00	74.35
773.00	74.18
772.00	73.98
771.00	73.76
770.00	73.53
769.00	73.30
768.00	73.06
767.00	72.83
766.00	72.59
765.00	72.35
764.00	72.11
763.00	71.87
762.00	71.63
761.00	71.40
760.00	71.18
759.00	70.98
758.00	70.79
757.00	70.62
756.00	70.46
755.00	70.31
754.00	70.17
753.00	70.06
752.00	69.96
751.00	69.88
750.00	69.80
749.00	69.71
748.00	69.63
747.00	69.56
746.00	69.50
745.00	69.45
744.00	69.40
743.00	69.36
742.00	69.33
741.00	69.30
740.00	69.28
739.00	69.27
738.00	69.28
737.00	69.30
736.00	69.31
735.00	69.32
734.00	69.33
733.00	69.33
732.00	69.34
731.00	69.36
730.00	69.39
729.00	69.41
728.00	69.43
727.00	69.44
726.00	69.44
725.00	69.45
724.00	69.45
723.00	69.44
722.00	69.43
721.00	69.40
720.00	69.37
719.00	69.32
718.00	69.27
717.00	69.20
716.00	69.13
715.00	69.08
714.00	69.06
713.00	69.06
712.00	69.10
711.00	69.14
710.00	69.19
709.00	69.24
708.00	69.29
707.00	69.32
706.00	69.35
705.00	69.37
704.00	69.39
703.00	69.41
702.00	69.42
701.00	69.42
700.00	69.42
699.00	69.41
698.00	69.41
697.00	69.40
696.00	69.38
695.00	69.36
694.00	69.33
693.00	69.30
692.00	69.27
691.00	69.24
690.00	69.20
689.00	69.15
688.00	69.11
687.00	69.07
686.00	69.02
685.00	68.96
684.00	68.89
683.00	68.81
682.00	68.74
681.00	68.68
680.00	68.62
679.00	68.55
678.00	68.46
677.00	68.36
676.00	68.26
675.00	68.17
674.00	68.08
673.00	67.99
672.00	67.89
671.00	67.80
670.00	67.71
669.00	67.61
668.00	67.49
667.00	67.37
666.00	67.27
665.00	67.17
664.00	67.08
663.00	66.98
662.00	66.89
661.00	66.79
660.00	66.67
659.00	66.53
658.00	66.35
657.00	66.16
656.00	65.98
655.00	65.81
654.00	65.66
653.00	65.52
652.00	65.36
651.00	65.17
650.00	64.96
649.00	64.74
648.00	64.50
647.00	64.27
646.00	64.05
645.00	63.86
644.00	63.72
643.00	63.61
642.00	63.52
641.00	63.45
640.00	63.39
639.00	63.33
638.00	63.27
637.00	63.20
636.00	63.14
635.00	63.09
634.00	63.06
633.00	63.05
632.00	63.08
631.00	63.14
630.00	63.22
629.00	63.32
628.00	63.41
627.00	63.49
626.00	63.58
625.00	63.67
624.00	63.78
623.00	63.89
622.00	63.97
621.00	64.03
620.00	64.07
619.00	64.10
618.00	64.11
617.00	64.09
616.00	64.04
615.00	64.00
614.00	63.96
613.00	63.95
612.00	63.96
611.00	64.01
610.00	64.09
609.00	64.17
608.00	64.21
607.00	64.19
606.00	64.15
605.00	64.12
604.00	64.14
603.00	64.18
602.00	64.21
601.00	64.18
600.00	64.12
