#Created as New Dataset	Sample 002 By PEService Date Tuesday	 April 30 2013
#cm-1	%T
4000.00	100.13
3999.00	100.14
3998.00	100.14
3997.00	100.14
3996.00	100.13
3995.00	100.13
3994.00	100.12
3993.00	100.11
3992.00	100.11
3991.00	100.11
3990.00	100.11
3989.00	100.10
3988.00	100.10
3987.00	100.11
3986.00	100.11
3985.00	100.12
3984.00	100.13
3983.00	100.13
3982.00	100.13
3981.00	100.13
3980.00	100.12
3979.00	100.12
3978.00	100.12
3977.00	100.13
3976.00	100.13
3975.00	100.14
3974.00	100.14
3973.00	100.14
3972.00	100.14
3971.00	100.14
3970.00	100.13
3969.00	100.13
3968.00	100.13
3967.00	100.12
3966.00	100.12
3965.00	100.12
3964.00	100.12
3963.00	100.12
3962.00	100.13
3961.00	100.13
3960.00	100.13
3959.00	100.13
3958.00	100.13
3957.00	100.13
3956.00	100.13
3955.00	100.13
3954.00	100.13
3953.00	100.14
3952.00	100.14
3951.00	100.14
3950.00	100.14
3949.00	100.13
3948.00	100.13
3947.00	100.13
3946.00	100.14
3945.00	100.15
3944.00	100.15
3943.00	100.15
3942.00	100.16
3941.00	100.16
3940.00	100.16
3939.00	100.15
3938.00	100.15
3937.00	100.14
3936.00	100.14
3935.00	100.14
3934.00	100.13
3933.00	100.13
3932.00	100.13
3931.00	100.12
3930.00	100.12
3929.00	100.12
3928.00	100.12
3927.00	100.12
3926.00	100.12
3925.00	100.12
3924.00	100.13
3923.00	100.14
3922.00	100.14
3921.00	100.14
3920.00	100.14
3919.00	100.14
3918.00	100.15
3917.00	100.15
3916.00	100.16
3915.00	100.15
3914.00	100.15
3913.00	100.15
3912.00	100.15
3911.00	100.15
3910.00	100.15
3909.00	100.14
3908.00	100.14
3907.00	100.14
3906.00	100.13
3905.00	100.12
3904.00	100.12
3903.00	100.12
3902.00	100.12
3901.00	100.12
3900.00	100.13
3899.00	100.13
3898.00	100.14
3897.00	100.14
3896.00	100.14
3895.00	100.15
3894.00	100.15
3893.00	100.15
3892.00	100.15
3891.00	100.15
3890.00	100.15
3889.00	100.15
3888.00	100.15
3887.00	100.15
3886.00	100.15
3885.00	100.15
3884.00	100.15
3883.00	100.15
3882.00	100.15
3881.00	100.15
3880.00	100.14
3879.00	100.14
3878.00	100.15
3877.00	100.15
3876.00	100.15
3875.00	100.15
3874.00	100.14
3873.00	100.14
3872.00	100.14
3871.00	100.14
3870.00	100.15
3869.00	100.16
3868.00	100.17
3867.00	100.17
3866.00	100.17
3865.00	100.17
3864.00	100.17
3863.00	100.16
3862.00	100.16
3861.00	100.16
3860.00	100.15
3859.00	100.16
3858.00	100.16
3857.00	100.16
3856.00	100.16
3855.00	100.16
3854.00	100.16
3853.00	100.16
3852.00	100.16
3851.00	100.16
3850.00	100.16
3849.00	100.15
3848.00	100.15
3847.00	100.15
3846.00	100.16
3845.00	100.16
3844.00	100.16
3843.00	100.17
3842.00	100.17
3841.00	100.17
3840.00	100.17
3839.00	100.17
3838.00	100.18
3837.00	100.18
3836.00	100.17
3835.00	100.17
3834.00	100.17
3833.00	100.17
3832.00	100.16
3831.00	100.16
3830.00	100.16
3829.00	100.16
3828.00	100.17
3827.00	100.18
3826.00	100.18
3825.00	100.19
3824.00	100.20
3823.00	100.21
3822.00	100.21
3821.00	100.20
3820.00	100.19
3819.00	100.17
3818.00	100.17
3817.00	100.18
3816.00	100.19
3815.00	100.20
3814.00	100.20
3813.00	100.19
3812.00	100.19
3811.00	100.19
3810.00	100.19
3809.00	100.19
3808.00	100.19
3807.00	100.18
3806.00	100.18
3805.00	100.18
3804.00	100.18
3803.00	100.18
3802.00	100.18
3801.00	100.18
3800.00	100.18
3799.00	100.18
3798.00	100.19
3797.00	100.20
3796.00	100.21
3795.00	100.20
3794.00	100.19
3793.00	100.19
3792.00	100.18
3791.00	100.17
3790.00	100.17
3789.00	100.17
3788.00	100.17
3787.00	100.17
3786.00	100.17
3785.00	100.17
3784.00	100.17
3783.00	100.18
3782.00	100.18
3781.00	100.19
3780.00	100.19
3779.00	100.19
3778.00	100.18
3777.00	100.18
3776.00	100.18
3775.00	100.18
3774.00	100.18
3773.00	100.18
3772.00	100.18
3771.00	100.18
3770.00	100.18
3769.00	100.18
3768.00	100.18
3767.00	100.17
3766.00	100.17
3765.00	100.16
3764.00	100.16
3763.00	100.16
3762.00	100.16
3761.00	100.17
3760.00	100.17
3759.00	100.16
3758.00	100.16
3757.00	100.16
3756.00	100.16
3755.00	100.17
3754.00	100.17
3753.00	100.18
3752.00	100.18
3751.00	100.19
3750.00	100.19
3749.00	100.19
3748.00	100.19
3747.00	100.18
3746.00	100.18
3745.00	100.18
3744.00	100.17
3743.00	100.16
3742.00	100.15
3741.00	100.16
3740.00	100.16
3739.00	100.17
3738.00	100.17
3737.00	100.18
3736.00	100.18
3735.00	100.18
3734.00	100.18
3733.00	100.18
3732.00	100.18
3731.00	100.17
3730.00	100.17
3729.00	100.16
3728.00	100.16
3727.00	100.16
3726.00	100.17
3725.00	100.17
3724.00	100.18
3723.00	100.18
3722.00	100.17
3721.00	100.17
3720.00	100.17
3719.00	100.16
3718.00	100.16
3717.00	100.16
3716.00	100.16
3715.00	100.16
3714.00	100.17
3713.00	100.18
3712.00	100.19
3711.00	100.19
3710.00	100.19
3709.00	100.19
3708.00	100.18
3707.00	100.17
3706.00	100.16
3705.00	100.16
3704.00	100.16
3703.00	100.16
3702.00	100.16
3701.00	100.16
3700.00	100.16
3699.00	100.16
3698.00	100.15
3697.00	100.15
3696.00	100.15
3695.00	100.15
3694.00	100.15
3693.00	100.15
3692.00	100.14
3691.00	100.14
3690.00	100.13
3689.00	100.13
3688.00	100.13
3687.00	100.12
3686.00	100.12
3685.00	100.12
3684.00	100.11
3683.00	100.11
3682.00	100.11
3681.00	100.11
3680.00	100.11
3679.00	100.11
3678.00	100.10
3677.00	100.10
3676.00	100.10
3675.00	100.10
3674.00	100.10
3673.00	100.09
3672.00	100.09
3671.00	100.08
3670.00	100.08
3669.00	100.07
3668.00	100.06
3667.00	100.05
3666.00	100.04
3665.00	100.04
3664.00	100.03
3663.00	100.02
3662.00	100.01
3661.00	100.01
3660.00	100.01
3659.00	100.01
3658.00	100.01
3657.00	100.00
3656.00	100.00
3655.00	99.99
3654.00	99.98
3653.00	99.98
3652.00	99.97
3651.00	99.96
3650.00	99.94
3649.00	99.92
3648.00	99.90
3647.00	99.88
3646.00	99.87
3645.00	99.86
3644.00	99.85
3643.00	99.85
3642.00	99.84
3641.00	99.83
3640.00	99.83
3639.00	99.82
3638.00	99.82
3637.00	99.82
3636.00	99.82
3635.00	99.81
3634.00	99.80
3633.00	99.79
3632.00	99.77
3631.00	99.76
3630.00	99.74
3629.00	99.72
3628.00	99.71
3627.00	99.70
3626.00	99.68
3625.00	99.67
3624.00	99.66
3623.00	99.64
3622.00	99.63
3621.00	99.62
3620.00	99.61
3619.00	99.60
3618.00	99.59
3617.00	99.57
3616.00	99.56
3615.00	99.55
3614.00	99.53
3613.00	99.52
3612.00	99.50
3611.00	99.49
3610.00	99.47
3609.00	99.46
3608.00	99.44
3607.00	99.43
3606.00	99.42
3605.00	99.41
3604.00	99.39
3603.00	99.38
3602.00	99.36
3601.00	99.34
3600.00	99.33
3599.00	99.31
3598.00	99.29
3597.00	99.28
3596.00	99.26
3595.00	99.25
3594.00	99.23
3593.00	99.21
3592.00	99.19
3591.00	99.17
3590.00	99.15
3589.00	99.13
3588.00	99.11
3587.00	99.09
3586.00	99.07
3585.00	99.05
3584.00	99.03
3583.00	99.01
3582.00	98.99
3581.00	98.97
3580.00	98.95
3579.00	98.93
3578.00	98.92
3577.00	98.90
3576.00	98.88
3575.00	98.86
3574.00	98.83
3573.00	98.81
3572.00	98.78
3571.00	98.76
3570.00	98.74
3569.00	98.71
3568.00	98.67
3567.00	98.64
3566.00	98.62
3565.00	98.61
3564.00	98.60
3563.00	98.58
3562.00	98.57
3561.00	98.54
3560.00	98.51
3559.00	98.49
3558.00	98.46
3557.00	98.44
3556.00	98.41
3555.00	98.38
3554.00	98.35
3553.00	98.32
3552.00	98.28
3551.00	98.25
3550.00	98.23
3549.00	98.21
3548.00	98.19
3547.00	98.17
3546.00	98.14
3545.00	98.12
3544.00	98.10
3543.00	98.07
3542.00	98.04
3541.00	98.01
3540.00	97.97
3539.00	97.94
3538.00	97.90
3537.00	97.87
3536.00	97.84
3535.00	97.81
3534.00	97.78
3533.00	97.75
3532.00	97.72
3531.00	97.69
3530.00	97.66
3529.00	97.63
3528.00	97.60
3527.00	97.56
3526.00	97.53
3525.00	97.50
3524.00	97.47
3523.00	97.44
3522.00	97.41
3521.00	97.37
3520.00	97.34
3519.00	97.30
3518.00	97.27
3517.00	97.24
3516.00	97.21
3515.00	97.19
3514.00	97.16
3513.00	97.13
3512.00	97.09
3511.00	97.05
3510.00	97.02
3509.00	96.98
3508.00	96.94
3507.00	96.91
3506.00	96.88
3505.00	96.86
3504.00	96.83
3503.00	96.80
3502.00	96.77
3501.00	96.74
3500.00	96.70
3499.00	96.67
3498.00	96.64
3497.00	96.61
3496.00	96.58
3495.00	96.54
3494.00	96.51
3493.00	96.47
3492.00	96.44
3491.00	96.41
3490.00	96.38
3489.00	96.35
3488.00	96.32
3487.00	96.30
3486.00	96.27
3485.00	96.24
3484.00	96.20
3483.00	96.17
3482.00	96.14
3481.00	96.11
3480.00	96.09
3479.00	96.06
3478.00	96.02
3477.00	95.98
3476.00	95.93
3475.00	95.90
3474.00	95.87
3473.00	95.84
3472.00	95.83
3471.00	95.82
3470.00	95.81
3469.00	95.80
3468.00	95.78
3467.00	95.74
3466.00	95.70
3465.00	95.65
3464.00	95.60
3463.00	95.56
3462.00	95.52
3461.00	95.49
3460.00	95.46
3459.00	95.43
3458.00	95.40
3457.00	95.36
3456.00	95.32
3455.00	95.28
3454.00	95.25
3453.00	95.21
3452.00	95.18
3451.00	95.15
3450.00	95.12
3449.00	95.09
3448.00	95.06
3447.00	95.02
3446.00	94.99
3445.00	94.95
3444.00	94.91
3443.00	94.87
3442.00	94.83
3441.00	94.80
3440.00	94.77
3439.00	94.76
3438.00	94.76
3437.00	94.75
3436.00	94.73
3435.00	94.70
3434.00	94.65
3433.00	94.60
3432.00	94.55
3431.00	94.51
3430.00	94.46
3429.00	94.42
3428.00	94.37
3427.00	94.31
3426.00	94.25
3425.00	94.20
3424.00	94.15
3423.00	94.11
3422.00	94.08
3421.00	94.04
3420.00	94.00
3419.00	93.96
3418.00	93.92
3417.00	93.89
3416.00	93.86
3415.00	93.83
3414.00	93.80
3413.00	93.77
3412.00	93.74
3411.00	93.70
3410.00	93.66
3409.00	93.62
3408.00	93.57
3407.00	93.52
3406.00	93.48
3405.00	93.44
3404.00	93.43
3403.00	93.42
3402.00	93.42
3401.00	93.40
3400.00	93.37
3399.00	93.30
3398.00	93.23
3397.00	93.17
3396.00	93.11
3395.00	93.08
3394.00	93.06
3393.00	93.04
3392.00	93.01
3391.00	92.96
3390.00	92.90
3389.00	92.84
3388.00	92.78
3387.00	92.72
3386.00	92.68
3385.00	92.63
3384.00	92.59
3383.00	92.55
3382.00	92.52
3381.00	92.48
3380.00	92.45
3379.00	92.41
3378.00	92.38
3377.00	92.34
3376.00	92.31
3375.00	92.27
3374.00	92.23
3373.00	92.20
3372.00	92.18
3371.00	92.16
3370.00	92.14
3369.00	92.10
3368.00	92.06
3367.00	92.01
3366.00	91.96
3365.00	91.90
3364.00	91.85
3363.00	91.80
3362.00	91.75
3361.00	91.71
3360.00	91.68
3359.00	91.65
3358.00	91.62
3357.00	91.59
3356.00	91.55
3355.00	91.52
3354.00	91.48
3353.00	91.45
3352.00	91.41
3351.00	91.38
3350.00	91.34
3349.00	91.30
3348.00	91.26
3347.00	91.23
3346.00	91.20
3345.00	91.18
3344.00	91.15
3343.00	91.13
3342.00	91.10
3341.00	91.07
3340.00	91.03
3339.00	91.00
3338.00	90.97
3337.00	90.94
3336.00	90.91
3335.00	90.87
3334.00	90.84
3333.00	90.82
3332.00	90.80
3331.00	90.78
3330.00	90.75
3329.00	90.73
3328.00	90.71
3327.00	90.70
3326.00	90.68
3325.00	90.66
3324.00	90.64
3323.00	90.62
3322.00	90.60
3321.00	90.58
3320.00	90.57
3319.00	90.55
3318.00	90.54
3317.00	90.54
3316.00	90.53
3315.00	90.51
3314.00	90.50
3313.00	90.48
3312.00	90.46
3311.00	90.45
3310.00	90.43
3309.00	90.42
3308.00	90.41
3307.00	90.40
3306.00	90.39
3305.00	90.38
3304.00	90.36
3303.00	90.35
3302.00	90.33
3301.00	90.32
3300.00	90.31
3299.00	90.31
3298.00	90.30
3297.00	90.30
3296.00	90.30
3295.00	90.30
3294.00	90.30
3293.00	90.30
3292.00	90.30
3291.00	90.29
3290.00	90.28
3289.00	90.26
3288.00	90.25
3287.00	90.24
3286.00	90.24
3285.00	90.24
3284.00	90.24
3283.00	90.24
3282.00	90.23
3281.00	90.23
3280.00	90.22
3279.00	90.21
3278.00	90.21
3277.00	90.21
3276.00	90.22
3275.00	90.23
3274.00	90.24
3273.00	90.25
3272.00	90.26
3271.00	90.27
3270.00	90.26
3269.00	90.26
3268.00	90.25
3267.00	90.24
3266.00	90.24
3265.00	90.24
3264.00	90.25
3263.00	90.26
3262.00	90.27
3261.00	90.28
3260.00	90.28
3259.00	90.29
3258.00	90.29
3257.00	90.30
3256.00	90.30
3255.00	90.31
3254.00	90.32
3253.00	90.32
3252.00	90.32
3251.00	90.31
3250.00	90.30
3249.00	90.30
3248.00	90.31
3247.00	90.32
3246.00	90.32
3245.00	90.33
3244.00	90.33
3243.00	90.33
3242.00	90.33
3241.00	90.34
3240.00	90.34
3239.00	90.34
3238.00	90.34
3237.00	90.34
3236.00	90.34
3235.00	90.34
3234.00	90.34
3233.00	90.34
3232.00	90.35
3231.00	90.35
3230.00	90.35
3229.00	90.35
3228.00	90.34
3227.00	90.34
3226.00	90.34
3225.00	90.35
3224.00	90.35
3223.00	90.35
3222.00	90.35
3221.00	90.35
3220.00	90.35
3219.00	90.35
3218.00	90.34
3217.00	90.34
3216.00	90.33
3215.00	90.33
3214.00	90.33
3213.00	90.32
3212.00	90.32
3211.00	90.31
3210.00	90.29
3209.00	90.28
3208.00	90.28
3207.00	90.27
3206.00	90.27
3205.00	90.26
3204.00	90.26
3203.00	90.26
3202.00	90.26
3201.00	90.25
3200.00	90.24
3199.00	90.23
3198.00	90.21
3197.00	90.19
3196.00	90.18
3195.00	90.17
3194.00	90.17
3193.00	90.17
3192.00	90.16
3191.00	90.14
3190.00	90.13
3189.00	90.11
3188.00	90.09
3187.00	90.09
3186.00	90.08
3185.00	90.07
3184.00	90.07
3183.00	90.06
3182.00	90.04
3181.00	90.03
3180.00	90.01
3179.00	90.00
3178.00	89.98
3177.00	89.96
3176.00	89.95
3175.00	89.94
3174.00	89.92
3173.00	89.90
3172.00	89.88
3171.00	89.87
3170.00	89.85
3169.00	89.83
3168.00	89.82
3167.00	89.80
3166.00	89.78
3165.00	89.77
3164.00	89.75
3163.00	89.73
3162.00	89.71
3161.00	89.69
3160.00	89.66
3159.00	89.64
3158.00	89.62
3157.00	89.59
3156.00	89.57
3155.00	89.55
3154.00	89.52
3153.00	89.50
3152.00	89.48
3151.00	89.46
3150.00	89.44
3149.00	89.43
3148.00	89.41
3147.00	89.39
3146.00	89.36
3145.00	89.34
3144.00	89.32
3143.00	89.29
3142.00	89.27
3141.00	89.24
3140.00	89.21
3139.00	89.18
3138.00	89.15
3137.00	89.12
3136.00	89.10
3135.00	89.08
3134.00	89.06
3133.00	89.03
3132.00	89.00
3131.00	88.97
3130.00	88.94
3129.00	88.90
3128.00	88.87
3127.00	88.84
3126.00	88.81
3125.00	88.79
3124.00	88.76
3123.00	88.74
3122.00	88.71
3121.00	88.67
3120.00	88.63
3119.00	88.59
3118.00	88.55
3117.00	88.51
3116.00	88.48
3115.00	88.45
3114.00	88.42
3113.00	88.39
3112.00	88.36
3111.00	88.33
3110.00	88.29
3109.00	88.26
3108.00	88.23
3107.00	88.20
3106.00	88.17
3105.00	88.13
3104.00	88.10
3103.00	88.07
3102.00	88.03
3101.00	88.00
3100.00	87.98
3099.00	87.95
3098.00	87.92
3097.00	87.90
3096.00	87.87
3095.00	87.85
3094.00	87.82
3093.00	87.80
3092.00	87.77
3091.00	87.74
3090.00	87.72
3089.00	87.69
3088.00	87.67
3087.00	87.64
3086.00	87.60
3085.00	87.57
3084.00	87.53
3083.00	87.49
3082.00	87.45
3081.00	87.41
3080.00	87.38
3079.00	87.34
3078.00	87.30
3077.00	87.27
3076.00	87.24
3075.00	87.21
3074.00	87.18
3073.00	87.14
3072.00	87.10
3071.00	87.05
3070.00	87.00
3069.00	86.95
3068.00	86.89
3067.00	86.84
3066.00	86.80
3065.00	86.76
3064.00	86.71
3063.00	86.67
3062.00	86.62
3061.00	86.57
3060.00	86.51
3059.00	86.46
3058.00	86.40
3057.00	86.34
3056.00	86.28
3055.00	86.22
3054.00	86.16
3053.00	86.10
3052.00	86.05
3051.00	85.99
3050.00	85.94
3049.00	85.89
3048.00	85.84
3047.00	85.79
3046.00	85.74
3045.00	85.68
3044.00	85.62
3043.00	85.56
3042.00	85.51
3041.00	85.46
3040.00	85.41
3039.00	85.36
3038.00	85.31
3037.00	85.25
3036.00	85.20
3035.00	85.15
3034.00	85.09
3033.00	85.04
3032.00	84.99
3031.00	84.94
3030.00	84.89
3029.00	84.85
3028.00	84.80
3027.00	84.76
3026.00	84.73
3025.00	84.70
3024.00	84.67
3023.00	84.65
3022.00	84.64
3021.00	84.62
3020.00	84.61
3019.00	84.61
3018.00	84.61
3017.00	84.62
3016.00	84.64
3015.00	84.66
3014.00	84.68
3013.00	84.70
3012.00	84.72
3011.00	84.74
3010.00	84.76
3009.00	84.77
3008.00	84.78
3007.00	84.79
3006.00	84.79
3005.00	84.78
3004.00	84.77
3003.00	84.76
3002.00	84.74
3001.00	84.72
3000.00	84.69
2999.00	84.66
2998.00	84.63
2997.00	84.61
2996.00	84.58
2995.00	84.55
2994.00	84.52
2993.00	84.48
2992.00	84.45
2991.00	84.41
2990.00	84.38
2989.00	84.35
2988.00	84.31
2987.00	84.27
2986.00	84.23
2985.00	84.19
2984.00	84.15
2983.00	84.11
2982.00	84.06
2981.00	84.01
2980.00	83.96
2979.00	83.90
2978.00	83.84
2977.00	83.78
2976.00	83.72
2975.00	83.65
2974.00	83.59
2973.00	83.52
2972.00	83.46
2971.00	83.39
2970.00	83.33
2969.00	83.28
2968.00	83.23
2967.00	83.19
2966.00	83.15
2965.00	83.11
2964.00	83.08
2963.00	83.05
2962.00	83.02
2961.00	83.00
2960.00	82.99
2959.00	82.98
2958.00	82.97
2957.00	82.97
2956.00	82.97
2955.00	82.97
2954.00	82.98
2953.00	82.99
2952.00	83.01
2951.00	83.02
2950.00	83.03
2949.00	83.04
2948.00	83.05
2947.00	83.07
2946.00	83.07
2945.00	83.07
2944.00	83.07
2943.00	83.07
2942.00	83.06
2941.00	83.05
2940.00	83.04
2939.00	83.02
2938.00	83.00
2937.00	82.98
2936.00	82.97
2935.00	82.95
2934.00	82.92
2933.00	82.90
2932.00	82.88
2931.00	82.85
2930.00	82.82
2929.00	82.80
2928.00	82.77
2927.00	82.76
2926.00	82.75
2925.00	82.74
2924.00	82.74
2923.00	82.74
2922.00	82.74
2921.00	82.75
2920.00	82.77
2919.00	82.79
2918.00	82.81
2917.00	82.83
2916.00	82.85
2915.00	82.88
2914.00	82.90
2913.00	82.93
2912.00	82.96
2911.00	82.99
2910.00	83.01
2909.00	83.04
2908.00	83.07
2907.00	83.10
2906.00	83.13
2905.00	83.16
2904.00	83.18
2903.00	83.20
2902.00	83.22
2901.00	83.24
2900.00	83.27
2899.00	83.29
2898.00	83.31
2897.00	83.33
2896.00	83.35
2895.00	83.36
2894.00	83.38
2893.00	83.40
2892.00	83.42
2891.00	83.44
2890.00	83.47
2889.00	83.49
2888.00	83.52
2887.00	83.55
2886.00	83.59
2885.00	83.62
2884.00	83.65
2883.00	83.69
2882.00	83.72
2881.00	83.75
2880.00	83.79
2879.00	83.82
2878.00	83.86
2877.00	83.89
2876.00	83.92
2875.00	83.96
2874.00	84.00
2873.00	84.04
2872.00	84.09
2871.00	84.13
2870.00	84.18
2869.00	84.22
2868.00	84.26
2867.00	84.30
2866.00	84.33
2865.00	84.37
2864.00	84.41
2863.00	84.44
2862.00	84.48
2861.00	84.52
2860.00	84.55
2859.00	84.59
2858.00	84.62
2857.00	84.65
2856.00	84.68
2855.00	84.71
2854.00	84.75
2853.00	84.78
2852.00	84.82
2851.00	84.86
2850.00	84.91
2849.00	84.96
2848.00	85.01
2847.00	85.06
2846.00	85.11
2845.00	85.17
2844.00	85.23
2843.00	85.29
2842.00	85.35
2841.00	85.41
2840.00	85.46
2839.00	85.51
2838.00	85.55
2837.00	85.59
2836.00	85.64
2835.00	85.68
2834.00	85.73
2833.00	85.78
2832.00	85.83
2831.00	85.88
2830.00	85.92
2829.00	85.97
2828.00	86.02
2827.00	86.07
2826.00	86.13
2825.00	86.18
2824.00	86.23
2823.00	86.29
2822.00	86.34
2821.00	86.39
2820.00	86.44
2819.00	86.49
2818.00	86.54
2817.00	86.59
2816.00	86.65
2815.00	86.70
2814.00	86.76
2813.00	86.82
2812.00	86.88
2811.00	86.94
2810.00	86.99
2809.00	87.05
2808.00	87.11
2807.00	87.16
2806.00	87.22
2805.00	87.28
2804.00	87.34
2803.00	87.40
2802.00	87.46
2801.00	87.52
2800.00	87.59
2799.00	87.65
2798.00	87.71
2797.00	87.77
2796.00	87.82
2795.00	87.87
2794.00	87.92
2793.00	87.98
2792.00	88.04
2791.00	88.10
2790.00	88.17
2789.00	88.23
2788.00	88.29
2787.00	88.34
2786.00	88.40
2785.00	88.45
2784.00	88.51
2783.00	88.57
2782.00	88.63
2781.00	88.69
2780.00	88.75
2779.00	88.81
2778.00	88.87
2777.00	88.93
2776.00	88.99
2775.00	89.05
2774.00	89.10
2773.00	89.15
2772.00	89.20
2771.00	89.25
2770.00	89.30
2769.00	89.35
2768.00	89.40
2767.00	89.45
2766.00	89.50
2765.00	89.54
2764.00	89.59
2763.00	89.64
2762.00	89.69
2761.00	89.74
2760.00	89.79
2759.00	89.83
2758.00	89.88
2757.00	89.92
2756.00	89.96
2755.00	90.01
2754.00	90.05
2753.00	90.10
2752.00	90.14
2751.00	90.19
2750.00	90.23
2749.00	90.28
2748.00	90.33
2747.00	90.37
2746.00	90.42
2745.00	90.46
2744.00	90.51
2743.00	90.55
2742.00	90.60
2741.00	90.64
2740.00	90.68
2739.00	90.72
2738.00	90.77
2737.00	90.81
2736.00	90.85
2735.00	90.89
2734.00	90.93
2733.00	90.98
2732.00	91.01
2731.00	91.05
2730.00	91.09
2729.00	91.13
2728.00	91.17
2727.00	91.21
2726.00	91.25
2725.00	91.28
2724.00	91.32
2723.00	91.36
2722.00	91.39
2721.00	91.43
2720.00	91.46
2719.00	91.49
2718.00	91.51
2717.00	91.53
2716.00	91.56
2715.00	91.59
2714.00	91.62
2713.00	91.65
2712.00	91.67
2711.00	91.70
2710.00	91.73
2709.00	91.75
2708.00	91.77
2707.00	91.79
2706.00	91.81
2705.00	91.83
2704.00	91.85
2703.00	91.87
2702.00	91.89
2701.00	91.91
2700.00	91.93
2699.00	91.95
2698.00	91.97
2697.00	91.99
2696.00	92.00
2695.00	92.01
2694.00	92.03
2693.00	92.05
2692.00	92.07
2691.00	92.09
2690.00	92.10
2689.00	92.12
2688.00	92.13
2687.00	92.14
2686.00	92.16
2685.00	92.17
2684.00	92.19
2683.00	92.20
2682.00	92.22
2681.00	92.23
2680.00	92.25
2679.00	92.26
2678.00	92.28
2677.00	92.29
2676.00	92.30
2675.00	92.32
2674.00	92.33
2673.00	92.35
2672.00	92.37
2671.00	92.38
2670.00	92.40
2669.00	92.41
2668.00	92.43
2667.00	92.45
2666.00	92.46
2665.00	92.48
2664.00	92.49
2663.00	92.51
2662.00	92.53
2661.00	92.54
2660.00	92.56
2659.00	92.58
2658.00	92.59
2657.00	92.61
2656.00	92.63
2655.00	92.65
2654.00	92.66
2653.00	92.68
2652.00	92.70
2651.00	92.71
2650.00	92.72
2649.00	92.73
2648.00	92.75
2647.00	92.77
2646.00	92.79
2645.00	92.81
2644.00	92.82
2643.00	92.83
2642.00	92.85
2641.00	92.86
2640.00	92.87
2639.00	92.88
2638.00	92.90
2637.00	92.91
2636.00	92.91
2635.00	92.92
2634.00	92.93
2633.00	92.93
2632.00	92.94
2631.00	92.96
2630.00	92.97
2629.00	92.98
2628.00	92.99
2627.00	93.00
2626.00	93.01
2625.00	93.01
2624.00	93.01
2623.00	93.00
2622.00	93.00
2621.00	93.00
2620.00	93.01
2619.00	93.01
2618.00	93.01
2617.00	93.01
2616.00	93.02
2615.00	93.02
2614.00	93.02
2613.00	93.01
2612.00	93.01
2611.00	93.01
2610.00	93.01
2609.00	93.01
2608.00	93.00
2607.00	93.00
2606.00	92.99
2605.00	92.98
2604.00	92.97
2603.00	92.97
2602.00	92.96
2601.00	92.95
2600.00	92.94
2599.00	92.92
2598.00	92.91
2597.00	92.90
2596.00	92.89
2595.00	92.88
2594.00	92.86
2593.00	92.84
2592.00	92.82
2591.00	92.81
2590.00	92.79
2589.00	92.78
2588.00	92.77
2587.00	92.75
2586.00	92.74
2585.00	92.72
2584.00	92.70
2583.00	92.68
2582.00	92.66
2581.00	92.65
2580.00	92.64
2579.00	92.63
2578.00	92.62
2577.00	92.61
2576.00	92.60
2575.00	92.58
2574.00	92.57
2573.00	92.56
2572.00	92.55
2571.00	92.54
2570.00	92.53
2569.00	92.53
2568.00	92.52
2567.00	92.52
2566.00	92.52
2565.00	92.52
2564.00	92.52
2563.00	92.52
2562.00	92.52
2561.00	92.52
2560.00	92.53
2559.00	92.54
2558.00	92.55
2557.00	92.56
2556.00	92.58
2555.00	92.59
2554.00	92.61
2553.00	92.63
2552.00	92.65
2551.00	92.67
2550.00	92.69
2549.00	92.72
2548.00	92.75
2547.00	92.78
2546.00	92.81
2545.00	92.84
2544.00	92.88
2543.00	92.92
2542.00	92.96
2541.00	93.00
2540.00	93.03
2539.00	93.06
2538.00	93.10
2537.00	93.13
2536.00	93.17
2535.00	93.20
2534.00	93.24
2533.00	93.27
2532.00	93.30
2531.00	93.33
2530.00	93.36
2529.00	93.40
2528.00	93.43
2527.00	93.46
2526.00	93.50
2525.00	93.53
2524.00	93.55
2523.00	93.58
2522.00	93.61
2521.00	93.64
2520.00	93.67
2519.00	93.70
2518.00	93.73
2517.00	93.76
2516.00	93.79
2515.00	93.82
2514.00	93.84
2513.00	93.86
2512.00	93.88
2511.00	93.90
2510.00	93.92
2509.00	93.95
2508.00	93.97
2507.00	93.98
2506.00	94.00
2505.00	94.02
2504.00	94.03
2503.00	94.05
2502.00	94.06
2501.00	94.07
2500.00	94.09
2499.00	94.10
2498.00	94.11
2497.00	94.12
2496.00	94.12
2495.00	94.13
2494.00	94.14
2493.00	94.15
2492.00	94.15
2491.00	94.16
2490.00	94.17
2489.00	94.19
2488.00	94.20
2487.00	94.22
2486.00	94.24
2485.00	94.25
2484.00	94.27
2483.00	94.29
2482.00	94.31
2481.00	94.33
2480.00	94.36
2479.00	94.38
2478.00	94.40
2477.00	94.43
2476.00	94.46
2475.00	94.48
2474.00	94.51
2473.00	94.54
2472.00	94.58
2471.00	94.61
2470.00	94.64
2469.00	94.68
2468.00	94.71
2467.00	94.74
2466.00	94.77
2465.00	94.80
2464.00	94.83
2463.00	94.86
2462.00	94.89
2461.00	94.93
2460.00	94.97
2459.00	95.01
2458.00	95.04
2457.00	95.07
2456.00	95.10
2455.00	95.13
2454.00	95.15
2453.00	95.18
2452.00	95.21
2451.00	95.24
2450.00	95.28
2449.00	95.32
2448.00	95.36
2447.00	95.40
2446.00	95.43
2445.00	95.46
2444.00	95.49
2443.00	95.52
2442.00	95.56
2441.00	95.59
2440.00	95.63
2439.00	95.67
2438.00	95.71
2437.00	95.75
2436.00	95.78
2435.00	95.82
2434.00	95.86
2433.00	95.89
2432.00	95.93
2431.00	95.96
2430.00	96.00
2429.00	96.05
2428.00	96.08
2427.00	96.12
2426.00	96.16
2425.00	96.19
2424.00	96.23
2423.00	96.26
2422.00	96.30
2421.00	96.33
2420.00	96.36
2419.00	96.39
2418.00	96.43
2417.00	96.46
2416.00	96.50
2415.00	96.53
2414.00	96.57
2413.00	96.61
2412.00	96.64
2411.00	96.68
2410.00	96.71
2409.00	96.75
2408.00	96.78
2407.00	96.81
2406.00	96.83
2405.00	96.86
2404.00	96.89
2403.00	96.92
2402.00	96.95
2401.00	96.98
2400.00	97.01
2399.00	97.04
2398.00	97.06
2397.00	97.09
2396.00	97.11
2395.00	97.14
2394.00	97.16
2393.00	97.18
2392.00	97.20
2391.00	97.23
2390.00	97.25
2389.00	97.27
2388.00	97.29
2387.00	97.31
2386.00	97.33
2385.00	97.35
2384.00	97.36
2383.00	97.38
2382.00	97.41
2381.00	97.43
2380.00	97.46
2379.00	97.50
2378.00	97.53
2377.00	97.55
2376.00	97.58
2375.00	97.59
2374.00	97.61
2373.00	97.63
2372.00	97.65
2371.00	97.67
2370.00	97.70
2369.00	97.72
2368.00	97.75
2367.00	97.76
2366.00	97.78
2365.00	97.79
2364.00	97.80
2363.00	97.82
2362.00	97.85
2361.00	97.88
2360.00	97.90
2359.00	97.92
2358.00	97.93
2357.00	97.94
2356.00	97.96
2355.00	98.00
2354.00	98.03
2353.00	98.05
2352.00	98.06
2351.00	98.07
2350.00	98.08
2349.00	98.09
2348.00	98.11
2347.00	98.13
2346.00	98.15
2345.00	98.16
2344.00	98.17
2343.00	98.18
2342.00	98.20
2341.00	98.22
2340.00	98.24
2339.00	98.27
2338.00	98.28
2337.00	98.28
2336.00	98.28
2335.00	98.29
2334.00	98.30
2333.00	98.32
2332.00	98.35
2331.00	98.37
2330.00	98.39
2329.00	98.40
2328.00	98.40
2327.00	98.41
2326.00	98.41
2325.00	98.42
2324.00	98.43
2323.00	98.44
2322.00	98.45
2321.00	98.46
2320.00	98.47
2319.00	98.48
2318.00	98.49
2317.00	98.50
2316.00	98.52
2315.00	98.54
2314.00	98.55
2313.00	98.56
2312.00	98.56
2311.00	98.57
2310.00	98.57
2309.00	98.58
2308.00	98.59
2307.00	98.59
2306.00	98.60
2305.00	98.60
2304.00	98.61
2303.00	98.61
2302.00	98.62
2301.00	98.63
2300.00	98.64
2299.00	98.65
2298.00	98.66
2297.00	98.67
2296.00	98.68
2295.00	98.68
2294.00	98.69
2293.00	98.70
2292.00	98.70
2291.00	98.70
2290.00	98.71
2289.00	98.72
2288.00	98.72
2287.00	98.73
2286.00	98.73
2285.00	98.73
2284.00	98.74
2283.00	98.75
2282.00	98.76
2281.00	98.77
2280.00	98.78
2279.00	98.80
2278.00	98.81
2277.00	98.82
2276.00	98.83
2275.00	98.84
2274.00	98.84
2273.00	98.85
2272.00	98.85
2271.00	98.85
2270.00	98.86
2269.00	98.87
2268.00	98.88
2267.00	98.89
2266.00	98.90
2265.00	98.91
2264.00	98.91
2263.00	98.92
2262.00	98.92
2261.00	98.93
2260.00	98.93
2259.00	98.94
2258.00	98.95
2257.00	98.95
2256.00	98.96
2255.00	98.96
2254.00	98.96
2253.00	98.96
2252.00	98.96
2251.00	98.97
2250.00	98.98
2249.00	98.99
2248.00	98.99
2247.00	99.00
2246.00	99.00
2245.00	99.01
2244.00	99.01
2243.00	99.02
2242.00	99.02
2241.00	99.02
2240.00	99.02
2239.00	99.03
2238.00	99.03
2237.00	99.03
2236.00	99.03
2235.00	99.03
2234.00	99.04
2233.00	99.05
2232.00	99.05
2231.00	99.06
2230.00	99.06
2229.00	99.06
2228.00	99.06
2227.00	99.06
2226.00	99.06
2225.00	99.05
2224.00	99.05
2223.00	99.05
2222.00	99.05
2221.00	99.05
2220.00	99.05
2219.00	99.05
2218.00	99.05
2217.00	99.05
2216.00	99.05
2215.00	99.05
2214.00	99.05
2213.00	99.05
2212.00	99.06
2211.00	99.06
2210.00	99.06
2209.00	99.06
2208.00	99.06
2207.00	99.06
2206.00	99.05
2205.00	99.05
2204.00	99.05
2203.00	99.05
2202.00	99.05
2201.00	99.05
2200.00	99.05
2199.00	99.06
2198.00	99.06
2197.00	99.06
2196.00	99.06
2195.00	99.06
2194.00	99.06
2193.00	99.05
2192.00	99.05
2191.00	99.05
2190.00	99.05
2189.00	99.05
2188.00	99.04
2187.00	99.04
2186.00	99.04
2185.00	99.04
2184.00	99.05
2183.00	99.05
2182.00	99.05
2181.00	99.05
2180.00	99.06
2179.00	99.06
2178.00	99.06
2177.00	99.05
2176.00	99.05
2175.00	99.04
2174.00	99.04
2173.00	99.05
2172.00	99.05
2171.00	99.06
2170.00	99.07
2169.00	99.08
2168.00	99.08
2167.00	99.07
2166.00	99.06
2165.00	99.06
2164.00	99.05
2163.00	99.05
2162.00	99.04
2161.00	99.04
2160.00	99.04
2159.00	99.04
2158.00	99.04
2157.00	99.04
2156.00	99.04
2155.00	99.04
2154.00	99.03
2153.00	99.03
2152.00	99.03
2151.00	99.03
2150.00	99.03
2149.00	99.02
2148.00	99.02
2147.00	99.02
2146.00	99.01
2145.00	99.01
2144.00	99.01
2143.00	99.00
2142.00	99.00
2141.00	99.00
2140.00	98.99
2139.00	98.98
2138.00	98.97
2137.00	98.97
2136.00	98.97
2135.00	98.97
2134.00	98.97
2133.00	98.97
2132.00	98.97
2131.00	98.97
2130.00	98.97
2129.00	98.96
2128.00	98.96
2127.00	98.95
2126.00	98.95
2125.00	98.95
2124.00	98.94
2123.00	98.94
2122.00	98.94
2121.00	98.95
2120.00	98.95
2119.00	98.95
2118.00	98.94
2117.00	98.94
2116.00	98.93
2115.00	98.93
2114.00	98.93
2113.00	98.92
2112.00	98.92
2111.00	98.91
2110.00	98.90
2109.00	98.89
2108.00	98.88
2107.00	98.87
2106.00	98.87
2105.00	98.86
2104.00	98.86
2103.00	98.85
2102.00	98.86
2101.00	98.86
2100.00	98.86
2099.00	98.85
2098.00	98.85
2097.00	98.84
2096.00	98.83
2095.00	98.82
2094.00	98.81
2093.00	98.81
2092.00	98.80
2091.00	98.80
2090.00	98.80
2089.00	98.81
2088.00	98.81
2087.00	98.81
2086.00	98.82
2085.00	98.83
2084.00	98.83
2083.00	98.83
2082.00	98.83
2081.00	98.83
2080.00	98.83
2079.00	98.84
2078.00	98.85
2077.00	98.86
2076.00	98.86
2075.00	98.87
2074.00	98.88
2073.00	98.88
2072.00	98.89
2071.00	98.90
2070.00	98.91
2069.00	98.92
2068.00	98.91
2067.00	98.91
2066.00	98.90
2065.00	98.90
2064.00	98.90
2063.00	98.92
2062.00	98.93
2061.00	98.94
2060.00	98.94
2059.00	98.94
2058.00	98.94
2057.00	98.94
2056.00	98.94
2055.00	98.94
2054.00	98.94
2053.00	98.95
2052.00	98.95
2051.00	98.95
2050.00	98.94
2049.00	98.94
2048.00	98.93
2047.00	98.93
2046.00	98.93
2045.00	98.92
2044.00	98.91
2043.00	98.89
2042.00	98.88
2041.00	98.88
2040.00	98.88
2039.00	98.88
2038.00	98.89
2037.00	98.88
2036.00	98.88
2035.00	98.88
2034.00	98.88
2033.00	98.88
2032.00	98.87
2031.00	98.87
2030.00	98.86
2029.00	98.86
2028.00	98.86
2027.00	98.85
2026.00	98.85
2025.00	98.85
2024.00	98.85
2023.00	98.85
2022.00	98.84
2021.00	98.83
2020.00	98.83
2019.00	98.82
2018.00	98.82
2017.00	98.82
2016.00	98.81
2015.00	98.81
2014.00	98.81
2013.00	98.80
2012.00	98.79
2011.00	98.79
2010.00	98.78
2009.00	98.77
2008.00	98.77
2007.00	98.76
2006.00	98.76
2005.00	98.76
2004.00	98.76
2003.00	98.76
2002.00	98.76
2001.00	98.75
2000.00	98.74
1999.00	98.74
1998.00	98.74
1997.00	98.74
1996.00	98.74
1995.00	98.74
1994.00	98.74
1993.00	98.75
1992.00	98.75
1991.00	98.76
1990.00	98.76
1989.00	98.76
1988.00	98.76
1987.00	98.76
1986.00	98.76
1985.00	98.75
1984.00	98.75
1983.00	98.75
1982.00	98.75
1981.00	98.74
1980.00	98.74
1979.00	98.74
1978.00	98.74
1977.00	98.74
1976.00	98.73
1975.00	98.73
1974.00	98.72
1973.00	98.72
1972.00	98.71
1971.00	98.71
1970.00	98.71
1969.00	98.71
1968.00	98.70
1967.00	98.70
1966.00	98.69
1965.00	98.68
1964.00	98.67
1963.00	98.66
1962.00	98.66
1961.00	98.65
1960.00	98.64
1959.00	98.64
1958.00	98.64
1957.00	98.64
1956.00	98.63
1955.00	98.63
1954.00	98.63
1953.00	98.63
1952.00	98.62
1951.00	98.62
1950.00	98.61
1949.00	98.61
1948.00	98.60
1947.00	98.59
1946.00	98.57
1945.00	98.56
1944.00	98.54
1943.00	98.54
1942.00	98.54
1941.00	98.56
1940.00	98.57
1939.00	98.58
1938.00	98.59
1937.00	98.59
1936.00	98.58
1935.00	98.58
1934.00	98.58
1933.00	98.58
1932.00	98.59
1931.00	98.60
1930.00	98.60
1929.00	98.60
1928.00	98.60
1927.00	98.60
1926.00	98.59
1925.00	98.57
1924.00	98.64
1923.00	98.65
1922.00	98.66
1921.00	98.66
1920.00	98.66
1919.00	98.66
1918.00	98.67
1917.00	98.67
1916.00	98.66
1915.00	98.66
1914.00	98.66
1913.00	98.67
1912.00	98.67
1911.00	98.63
1910.00	98.62
1909.00	98.63
1908.00	98.64
1907.00	98.66
1906.00	98.67
1905.00	98.69
1904.00	98.70
1903.00	98.70
1902.00	98.71
1901.00	98.71
1900.00	98.71
1899.00	98.71
1898.00	98.71
1897.00	98.71
1896.00	98.70
1895.00	98.70
1894.00	98.71
1893.00	98.71
1892.00	98.71
1891.00	98.71
1890.00	98.70
1889.00	98.71
1888.00	98.72
1887.00	98.73
1886.00	98.74
1885.00	98.74
1884.00	98.74
1883.00	98.75
1882.00	98.74
1881.00	98.74
1880.00	98.74
1879.00	98.73
1878.00	98.73
1877.00	98.73
1876.00	98.72
1875.00	98.71
1874.00	98.70
1873.00	98.68
1872.00	98.66
1871.00	98.63
1870.00	98.59
1869.00	98.56
1868.00	98.55
1867.00	98.56
1866.00	98.57
1865.00	98.58
1864.00	98.59
1863.00	98.58
1862.00	98.57
1861.00	98.56
1860.00	98.55
1859.00	98.54
1858.00	98.53
1857.00	98.53
1856.00	98.52
1855.00	98.52
1854.00	98.51
1853.00	98.49
1852.00	98.47
1851.00	98.44
1850.00	98.41
1849.00	98.38
1848.00	98.36
1847.00	98.35
1846.00	98.34
1845.00	98.33
1844.00	98.31
1843.00	98.31
1842.00	98.31
1841.00	98.31
1840.00	98.30
1839.00	98.29
1838.00	98.27
1837.00	98.26
1836.00	98.25
1835.00	98.24
1834.00	98.23
1833.00	98.22
1832.00	98.20
1831.00	98.17
1830.00	98.14
1829.00	98.12
1828.00	98.10
1827.00	98.07
1826.00	98.04
1825.00	98.02
1824.00	98.00
1823.00	97.98
1822.00	97.97
1821.00	97.95
1820.00	97.92
1819.00	97.88
1818.00	97.84
1817.00	97.81
1816.00	97.78
1815.00	97.75
1814.00	97.70
1813.00	97.65
1812.00	97.60
1811.00	97.56
1810.00	97.52
1809.00	97.49
1808.00	97.45
1807.00	97.41
1806.00	97.36
1805.00	97.30
1804.00	97.23
1803.00	97.15
1802.00	97.09
1801.00	97.03
1800.00	96.99
1799.00	96.94
1798.00	96.88
1797.00	96.81
1796.00	96.75
1795.00	96.69
1794.00	96.63
1793.00	96.54
1792.00	96.45
1791.00	96.37
1790.00	96.31
1789.00	96.25
1788.00	96.19
1787.00	96.11
1786.00	96.03
1785.00	95.94
1784.00	95.85
1783.00	95.76
1782.00	95.67
1781.00	95.57
1780.00	95.49
1779.00	95.41
1778.00	95.33
1777.00	95.26
1776.00	95.18
1775.00	95.09
1774.00	94.99
1773.00	94.88
1772.00	94.76
1771.00	94.64
1770.00	94.52
1769.00	94.38
1768.00	94.23
1767.00	94.08
1766.00	93.93
1765.00	93.76
1764.00	93.56
1763.00	93.30
1762.00	92.99
1761.00	92.66
1760.00	92.32
1759.00	91.98
1758.00	91.60
1757.00	91.18
1756.00	90.74
1755.00	90.30
1754.00	89.83
1753.00	89.32
1752.00	88.74
1751.00	88.10
1750.00	87.45
1749.00	86.80
1748.00	86.17
1747.00	85.52
1746.00	84.85
1745.00	84.13
1744.00	83.39
1743.00	82.63
1742.00	81.83
1741.00	80.96
1740.00	79.99
1739.00	78.99
1738.00	78.03
1737.00	77.11
1736.00	76.12
1735.00	74.92
1734.00	73.53
1733.00	72.16
1732.00	70.99
1731.00	69.98
1730.00	69.00
1729.00	67.98
1728.00	66.95
1727.00	65.94
1726.00	64.96
1725.00	63.98
1724.00	63.02
1723.00	62.11
1722.00	61.28
1721.00	60.52
1720.00	59.77
1719.00	58.97
1718.00	58.12
1717.00	57.30
1716.00	56.62
1715.00	56.08
1714.00	55.63
1713.00	55.25
1712.00	54.91
1711.00	54.64
1710.00	54.46
1709.00	54.37
1708.00	54.38
1707.00	54.51
1706.00	54.78
1705.00	55.16
1704.00	55.59
1703.00	56.09
1702.00	56.75
1701.00	57.66
1700.00	58.75
1699.00	59.80
1698.00	60.76
1697.00	61.78
1696.00	63.01
1695.00	64.38
1694.00	65.66
1693.00	66.78
1692.00	67.81
1691.00	68.89
1690.00	70.02
1689.00	71.15
1688.00	72.17
1687.00	73.11
1686.00	74.10
1685.00	75.25
1684.00	76.53
1683.00	77.70
1682.00	78.62
1681.00	79.37
1680.00	80.06
1679.00	80.74
1678.00	81.43
1677.00	82.12
1676.00	82.83
1675.00	83.52
1674.00	84.16
1673.00	84.70
1672.00	85.17
1671.00	85.65
1670.00	86.18
1669.00	86.72
1668.00	87.20
1667.00	87.62
1666.00	87.97
1665.00	88.31
1664.00	88.66
1663.00	89.00
1662.00	89.32
1661.00	89.60
1660.00	89.83
1659.00	90.02
1658.00	90.18
1657.00	90.29
1656.00	90.36
1655.00	90.38
1654.00	90.33
1653.00	90.20
1652.00	90.01
1651.00	89.79
1650.00	89.55
1649.00	89.19
1648.00	88.65
1647.00	87.92
1646.00	87.09
1645.00	86.25
1644.00	85.46
1643.00	84.71
1642.00	83.95
1641.00	83.22
1640.00	82.55
1639.00	81.99
1638.00	81.58
1637.00	81.38
1636.00	81.46
1635.00	81.83
1634.00	82.38
1633.00	83.01
1632.00	83.70
1631.00	84.46
1630.00	85.30
1629.00	86.20
1628.00	87.09
1627.00	87.90
1626.00	88.63
1625.00	89.27
1624.00	89.87
1623.00	90.42
1622.00	90.91
1621.00	91.30
1620.00	91.61
1619.00	91.87
1618.00	92.14
1617.00	92.44
1616.00	92.76
1615.00	93.06
1614.00	93.31
1613.00	93.52
1612.00	93.71
1611.00	93.89
1610.00	94.07
1609.00	94.25
1608.00	94.43
1607.00	94.60
1606.00	94.77
1605.00	94.93
1604.00	95.07
1603.00	95.20
1602.00	95.33
1601.00	95.46
1600.00	95.58
1599.00	95.70
1598.00	95.80
1597.00	95.89
1596.00	95.97
1595.00	96.06
1594.00	96.14
1593.00	96.21
1592.00	96.29
1591.00	96.36
1590.00	96.42
1589.00	96.49
1588.00	96.55
1587.00	96.61
1586.00	96.67
1585.00	96.72
1584.00	96.77
1583.00	96.82
1582.00	96.86
1581.00	96.90
1580.00	96.92
1579.00	96.92
1578.00	96.91
1577.00	96.91
1576.00	96.95
1575.00	97.02
1574.00	97.10
1573.00	97.17
1572.00	97.22
1571.00	97.25
1570.00	97.26
1569.00	97.28
1568.00	97.29
1567.00	97.30
1566.00	97.31
1565.00	97.32
1564.00	97.33
1563.00	97.33
1562.00	97.33
1561.00	97.35
1560.00	97.35
1559.00	97.33
1558.00	97.33
1557.00	97.32
1556.00	97.30
1555.00	97.28
1554.00	97.28
1553.00	97.27
1552.00	97.27
1551.00	97.26
1550.00	97.27
1549.00	97.29
1548.00	97.30
1547.00	97.30
1546.00	97.27
1545.00	97.24
1544.00	97.21
1543.00	97.20
1542.00	97.19
1541.00	97.17
1540.00	97.16
1539.00	97.16
1538.00	97.18
1537.00	97.21
1536.00	97.24
1535.00	97.24
1534.00	97.22
1533.00	97.19
1532.00	97.16
1531.00	97.14
1530.00	97.11
1529.00	97.07
1528.00	97.03
1527.00	96.98
1526.00	96.95
1525.00	96.92
1524.00	96.88
1523.00	96.82
1522.00	96.74
1521.00	96.68
1520.00	96.65
1519.00	96.63
1518.00	96.58
1517.00	96.53
1516.00	96.47
1515.00	96.41
1514.00	96.34
1513.00	96.25
1512.00	96.12
1511.00	95.96
1510.00	95.77
1509.00	95.56
1508.00	95.35
1507.00	95.18
1506.00	95.04
1505.00	94.84
1504.00	94.59
1503.00	94.29
1502.00	93.93
1501.00	93.46
1500.00	92.84
1499.00	92.06
1498.00	91.08
1497.00	89.92
1496.00	88.66
1495.00	87.45
1494.00	86.37
1493.00	85.42
1492.00	84.55
1491.00	83.76
1490.00	83.10
1489.00	82.65
1488.00	82.39
1487.00	82.20
1486.00	82.01
1485.00	81.75
1484.00	81.42
1483.00	81.03
1482.00	80.60
1481.00	80.17
1480.00	79.80
1479.00	79.53
1478.00	79.38
1477.00	79.38
1476.00	79.52
1475.00	79.85
1474.00	80.37
1473.00	81.12
1472.00	82.02
1471.00	82.93
1470.00	83.77
1469.00	84.52
1468.00	85.23
1467.00	85.91
1466.00	86.56
1465.00	87.16
1464.00	87.65
1463.00	88.03
1462.00	88.30
1461.00	88.49
1460.00	88.62
1459.00	88.72
1458.00	88.81
1457.00	88.93
1456.00	89.06
1455.00	89.16
1454.00	89.22
1453.00	89.24
1452.00	89.22
1451.00	89.17
1450.00	89.09
1449.00	89.00
1448.00	88.89
1447.00	88.79
1446.00	88.70
1445.00	88.60
1444.00	88.49
1443.00	88.37
1442.00	88.24
1441.00	88.09
1440.00	87.92
1439.00	87.73
1438.00	87.49
1437.00	87.20
1436.00	86.88
1435.00	86.57
1434.00	86.27
1433.00	85.96
1432.00	85.62
1431.00	85.23
1430.00	84.82
1429.00	84.42
1428.00	84.03
1427.00	83.68
1426.00	83.34
1425.00	83.04
1424.00	82.79
1423.00	82.59
1422.00	82.45
1421.00	82.36
1420.00	82.32
1419.00	82.34
1418.00	82.45
1417.00	82.62
1416.00	82.82
1415.00	83.02
1414.00	83.21
1413.00	83.38
1412.00	83.53
1411.00	83.65
1410.00	83.74
1409.00	83.79
1408.00	83.79
1407.00	83.75
1406.00	83.66
1405.00	83.55
1404.00	83.42
1403.00	83.28
1402.00	83.11
1401.00	82.90
1400.00	82.66
1399.00	82.40
1398.00	82.13
1397.00	81.87
1396.00	81.63
1395.00	81.40
1394.00	81.17
1393.00	80.94
1392.00	80.71
1391.00	80.46
1390.00	80.19
1389.00	79.89
1388.00	79.58
1387.00	79.30
1386.00	79.05
1385.00	78.84
1384.00	78.65
1383.00	78.47
1382.00	78.32
1381.00	78.19
1380.00	78.10
1379.00	78.06
1378.00	78.07
1377.00	78.12
1376.00	78.21
1375.00	78.36
1374.00	78.57
1373.00	78.82
1372.00	79.09
1371.00	79.37
1370.00	79.64
1369.00	79.92
1368.00	80.20
1367.00	80.48
1366.00	80.73
1365.00	80.96
1364.00	81.18
1363.00	81.43
1362.00	81.71
1361.00	82.01
1360.00	82.31
1359.00	82.59
1358.00	82.87
1357.00	83.14
1356.00	83.41
1355.00	83.69
1354.00	83.97
1353.00	84.24
1352.00	84.51
1351.00	84.76
1350.00	85.02
1349.00	85.26
1348.00	85.50
1347.00	85.72
1346.00	85.93
1345.00	86.11
1344.00	86.27
1343.00	86.39
1342.00	86.48
1341.00	86.53
1340.00	86.59
1339.00	86.67
1338.00	86.77
1337.00	86.88
1336.00	86.97
1335.00	87.03
1334.00	87.07
1333.00	87.07
1332.00	87.07
1331.00	87.05
1330.00	87.03
1329.00	87.01
1328.00	86.98
1327.00	86.96
1326.00	86.93
1325.00	86.88
1324.00	86.84
1323.00	86.79
1322.00	86.73
1321.00	86.67
1320.00	86.61
1319.00	86.54
1318.00	86.47
1317.00	86.41
1316.00	86.35
1315.00	86.28
1314.00	86.22
1313.00	86.16
1312.00	86.09
1311.00	86.03
1310.00	85.96
1309.00	85.89
1308.00	85.82
1307.00	85.76
1306.00	85.70
1305.00	85.65
1304.00	85.59
1303.00	85.54
1302.00	85.50
1301.00	85.45
1300.00	85.41
1299.00	85.35
1298.00	85.28
1297.00	85.20
1296.00	85.10
1295.00	84.98
1294.00	84.85
1293.00	84.69
1292.00	84.51
1291.00	84.31
1290.00	84.10
1289.00	83.87
1288.00	83.64
1287.00	83.42
1286.00	83.21
1285.00	83.02
1284.00	82.86
1283.00	82.73
1282.00	82.64
1281.00	82.60
1280.00	82.63
1279.00	82.71
1278.00	82.84
1277.00	83.00
1276.00	83.19
1275.00	83.38
1274.00	83.59
1273.00	83.80
1272.00	84.03
1271.00	84.26
1270.00	84.50
1269.00	84.76
1268.00	85.03
1267.00	85.32
1266.00	85.61
1265.00	85.90
1264.00	86.19
1263.00	86.46
1262.00	86.71
1261.00	86.94
1260.00	87.13
1259.00	87.30
1258.00	87.42
1257.00	87.51
1256.00	87.56
1255.00	87.57
1254.00	87.55
1253.00	87.49
1252.00	87.40
1251.00	87.28
1250.00	87.14
1249.00	86.97
1248.00	86.77
1247.00	86.54
1246.00	86.27
1245.00	85.98
1244.00	85.66
1243.00	85.32
1242.00	84.97
1241.00	84.60
1240.00	84.23
1239.00	83.84
1238.00	83.46
1237.00	83.08
1236.00	82.71
1235.00	82.35
1234.00	82.00
1233.00	81.66
1232.00	81.31
1231.00	80.96
1230.00	80.60
1229.00	80.22
1228.00	79.82
1227.00	79.41
1226.00	78.98
1225.00	78.53
1224.00	78.07
1223.00	77.60
1222.00	77.11
1221.00	76.60
1220.00	76.07
1219.00	75.53
1218.00	74.97
1217.00	74.42
1216.00	73.87
1215.00	73.31
1214.00	72.77
1213.00	72.22
1212.00	71.69
1211.00	71.16
1210.00	70.66
1209.00	70.17
1208.00	69.71
1207.00	69.26
1206.00	68.83
1205.00	68.43
1204.00	68.05
1203.00	67.70
1202.00	67.38
1201.00	67.08
1200.00	66.81
1199.00	66.56
1198.00	66.31
1197.00	66.07
1196.00	65.84
1195.00	65.62
1194.00	65.40
1193.00	65.18
1192.00	64.95
1191.00	64.74
1190.00	64.54
1189.00	64.36
1188.00	64.20
1187.00	64.08
1186.00	63.97
1185.00	63.89
1184.00	63.84
1183.00	63.82
1182.00	63.84
1181.00	63.90
1180.00	63.99
1179.00	64.10
1178.00	64.23
1177.00	64.37
1176.00	64.51
1175.00	64.66
1174.00	64.80
1173.00	64.93
1172.00	65.04
1171.00	65.13
1170.00	65.17
1169.00	65.18
1168.00	65.13
1167.00	65.03
1166.00	64.86
1165.00	64.62
1164.00	64.30
1163.00	63.92
1162.00	63.46
1161.00	62.93
1160.00	62.35
1159.00	61.71
1158.00	61.03
1157.00	60.33
1156.00	59.60
1155.00	58.89
1154.00	58.21
1153.00	57.59
1152.00	57.04
1151.00	56.59
1150.00	56.27
1149.00	56.08
1148.00	56.06
1147.00	56.19
1146.00	56.49
1145.00	56.93
1144.00	57.51
1143.00	58.20
1142.00	58.99
1141.00	59.85
1140.00	60.77
1139.00	61.72
1138.00	62.71
1137.00	63.72
1136.00	64.75
1135.00	65.83
1134.00	66.95
1133.00	68.12
1132.00	69.35
1131.00	70.62
1130.00	71.93
1129.00	73.26
1128.00	74.59
1127.00	75.91
1126.00	77.20
1125.00	78.44
1124.00	79.62
1123.00	80.73
1122.00	81.76
1121.00	82.73
1120.00	83.62
1119.00	84.43
1118.00	85.17
1117.00	85.84
1116.00	86.43
1115.00	86.95
1114.00	87.42
1113.00	87.85
1112.00	88.23
1111.00	88.58
1110.00	88.89
1109.00	89.15
1108.00	89.38
1107.00	89.56
1106.00	89.70
1105.00	89.79
1104.00	89.83
1103.00	89.80
1102.00	89.70
1101.00	89.50
1100.00	89.21
1099.00	88.79
1098.00	88.25
1097.00	87.58
1096.00	86.76
1095.00	85.82
1094.00	84.77
1093.00	83.64
1092.00	82.47
1091.00	81.30
1090.00	80.16
1089.00	79.08
1088.00	78.11
1087.00	77.27
1086.00	76.58
1085.00	76.07
1084.00	75.74
1083.00	75.60
1082.00	75.67
1081.00	75.93
1080.00	76.38
1079.00	77.00
1078.00	77.77
1077.00	78.64
1076.00	79.57
1075.00	80.55
1074.00	81.52
1073.00	82.45
1072.00	83.34
1071.00	84.14
1070.00	84.86
1069.00	85.49
1068.00	86.02
1067.00	86.44
1066.00	86.75
1065.00	86.95
1064.00	87.06
1063.00	87.06
1062.00	86.97
1061.00	86.80
1060.00	86.57
1059.00	86.30
1058.00	86.01
1057.00	85.73
1056.00	85.48
1055.00	85.27
1054.00	85.11
1053.00	85.00
1052.00	84.93
1051.00	84.93
1050.00	85.00
1049.00	85.14
1048.00	85.36
1047.00	85.66
1046.00	86.03
1045.00	86.47
1044.00	86.97
1043.00	87.53
1042.00	88.11
1041.00	88.72
1040.00	89.32
1039.00	89.90
1038.00	90.45
1037.00	90.94
1036.00	91.38
1035.00	91.76
1034.00	92.09
1033.00	92.37
1032.00	92.60
1031.00	92.79
1030.00	92.95
1029.00	93.09
1028.00	93.20
1027.00	93.28
1026.00	93.34
1025.00	93.37
1024.00	93.36
1023.00	93.32
1022.00	93.24
1021.00	93.13
1020.00	92.99
1019.00	92.80
1018.00	92.58
1017.00	92.30
1016.00	91.97
1015.00	91.58
1014.00	91.14
1013.00	90.65
1012.00	90.12
1011.00	89.56
1010.00	89.00
1009.00	88.47
1008.00	88.00
1007.00	87.63
1006.00	87.37
1005.00	87.24
1004.00	87.24
1003.00	87.37
1002.00	87.62
1001.00	87.96
1000.00	88.37
999.00	88.81
998.00	89.25
997.00	89.65
996.00	90.01
995.00	90.30
994.00	90.53
993.00	90.67
992.00	90.74
991.00	90.74
990.00	90.67
989.00	90.53
988.00	90.35
987.00	90.11
986.00	89.84
985.00	89.51
984.00	89.14
983.00	88.71
982.00	88.23
981.00	87.72
980.00	87.16
979.00	86.56
978.00	85.93
977.00	85.27
976.00	84.60
975.00	83.93
974.00	83.27
973.00	82.65
972.00	82.08
971.00	81.55
970.00	81.04
969.00	80.53
968.00	79.95
967.00	79.23
966.00	78.33
965.00	77.18
964.00	75.79
963.00	74.18
962.00	72.41
961.00	70.59
960.00	68.83
959.00	67.25
958.00	65.89
957.00	64.81
956.00	63.98
955.00	63.37
954.00	62.94
953.00	62.66
952.00	62.54
951.00	62.62
950.00	62.94
949.00	63.55
948.00	64.46
947.00	65.67
946.00	67.14
945.00	68.82
944.00	70.65
943.00	72.55
942.00	74.46
941.00	76.33
940.00	78.10
939.00	79.73
938.00	81.16
937.00	82.39
936.00	83.39
935.00	84.18
934.00	84.78
933.00	85.21
932.00	85.50
931.00	85.67
930.00	85.75
929.00	85.75
928.00	85.70
927.00	85.63
926.00	85.57
925.00	85.53
924.00	85.51
923.00	85.53
922.00	85.58
921.00	85.67
920.00	85.79
919.00	85.95
918.00	86.13
917.00	86.30
916.00	86.45
915.00	86.57
914.00	86.65
913.00	86.70
912.00	86.72
911.00	86.72
910.00	86.69
909.00	86.62
908.00	86.51
907.00	86.37
906.00	86.19
905.00	85.97
904.00	85.72
903.00	85.43
902.00	85.13
901.00	84.81
900.00	84.49
899.00	84.16
898.00	83.82
897.00	83.48
896.00	83.15
895.00	82.83
894.00	82.53
893.00	82.26
892.00	82.01
891.00	81.78
890.00	81.57
889.00	81.38
888.00	81.20
887.00	81.06
886.00	80.93
885.00	80.82
884.00	80.74
883.00	80.67
882.00	80.62
881.00	80.56
880.00	80.51
879.00	80.44
878.00	80.35
877.00	80.23
876.00	80.06
875.00	79.83
874.00	79.56
873.00	79.21
872.00	78.80
871.00	78.31
870.00	77.76
869.00	77.19
868.00	76.63
867.00	76.13
866.00	75.73
865.00	75.47
864.00	75.36
863.00	75.41
862.00	75.60
861.00	75.90
860.00	76.29
859.00	76.72
858.00	77.15
857.00	77.54
856.00	77.87
855.00	78.13
854.00	78.31
853.00	78.44
852.00	78.52
851.00	78.56
850.00	78.57
849.00	78.54
848.00	78.48
847.00	78.40
846.00	78.30
845.00	78.18
844.00	78.02
843.00	77.84
842.00	77.64
841.00	77.43
840.00	77.21
839.00	76.98
838.00	76.73
837.00	76.46
836.00	76.17
835.00	75.89
834.00	75.62
833.00	75.37
832.00	75.14
831.00	74.93
830.00	74.75
829.00	74.61
828.00	74.54
827.00	74.57
826.00	74.70
825.00	74.95
824.00	75.30
823.00	75.75
822.00	76.27
821.00	76.80
820.00	77.33
819.00	77.80
818.00	78.19
817.00	78.48
816.00	78.63
815.00	78.66
814.00	78.58
813.00	78.41
812.00	78.17
811.00	77.88
810.00	77.56
809.00	77.24
808.00	76.95
807.00	76.72
806.00	76.58
805.00	76.54
804.00	76.62
803.00	76.83
802.00	77.14
801.00	77.54
800.00	78.01
799.00	78.54
798.00	79.09
797.00	79.65
796.00	80.20
795.00	80.73
794.00	81.23
793.00	81.69
792.00	82.13
791.00	82.54
790.00	82.92
789.00	83.28
788.00	83.60
787.00	83.89
786.00	84.15
785.00	84.37
784.00	84.57
783.00	84.76
782.00	84.94
781.00	85.13
780.00	85.31
779.00	85.49
778.00	85.65
777.00	85.80
776.00	85.94
775.00	86.07
774.00	86.20
773.00	86.34
772.00	86.47
771.00	86.59
770.00	86.70
769.00	86.80
768.00	86.88
767.00	86.95
766.00	87.03
765.00	87.11
764.00	87.20
763.00	87.29
762.00	87.39
761.00	87.48
760.00	87.57
759.00	87.65
758.00	87.72
757.00	87.78
756.00	87.83
755.00	87.85
754.00	87.86
753.00	87.87
752.00	87.86
751.00	87.86
750.00	87.84
749.00	87.82
748.00	87.78
747.00	87.72
746.00	87.64
745.00	87.52
744.00	87.36
743.00	87.15
742.00	86.91
741.00	86.62
740.00	86.30
739.00	85.93
738.00	85.52
737.00	85.05
736.00	84.54
735.00	83.98
734.00	83.35
733.00	82.67
732.00	81.94
731.00	81.19
730.00	80.42
729.00	79.64
728.00	78.88
727.00	78.14
726.00	77.45
725.00	76.84
724.00	76.32
723.00	75.92
722.00	75.66
721.00	75.56
720.00	75.62
719.00	75.86
718.00	76.24
717.00	76.75
716.00	77.39
715.00	78.12
714.00	78.94
713.00	79.80
712.00	80.67
711.00	81.52
710.00	82.32
709.00	83.05
708.00	83.70
707.00	84.29
706.00	84.81
705.00	85.27
704.00	85.68
703.00	86.03
702.00	86.33
701.00	86.57
700.00	86.77
699.00	86.94
698.00	87.08
697.00	87.21
696.00	87.31
695.00	87.39
694.00	87.44
693.00	87.49
692.00	87.54
691.00	87.59
690.00	87.62
689.00	87.65
688.00	87.68
687.00	87.70
686.00	87.72
685.00	87.73
684.00	87.74
683.00	87.73
682.00	87.71
681.00	87.68
680.00	87.65
679.00	87.62
678.00	87.59
677.00	87.56
676.00	87.54
675.00	87.54
674.00	87.54
673.00	87.54
672.00	87.52
671.00	87.49
670.00	87.44
669.00	87.35
668.00	87.20
667.00	87.04
666.00	86.92
665.00	86.84
664.00	86.78
663.00	86.73
662.00	86.70
661.00	86.68
660.00	86.66
659.00	86.65
658.00	86.63
657.00	86.61
656.00	86.56
655.00	86.49
654.00	86.39
653.00	86.27
652.00	86.14
651.00	86.01
650.00	85.89
649.00	85.77
648.00	85.67
647.00	85.59
646.00	85.51
645.00	85.41
644.00	85.24
643.00	85.00
642.00	84.74
641.00	84.50
640.00	84.32
639.00	84.18
638.00	84.04
637.00	83.87
636.00	83.68
635.00	83.48
634.00	83.28
633.00	83.07
632.00	82.82
631.00	82.53
630.00	82.21
629.00	81.89
628.00	81.55
627.00	81.18
626.00	80.80
625.00	80.40
624.00	79.96
623.00	79.40
622.00	78.68
621.00	77.79
620.00	76.80
619.00	75.78
618.00	74.77
617.00	73.73
616.00	72.62
615.00	71.47
614.00	70.35
613.00	69.33
612.00	68.47
611.00	67.82
610.00	67.42
609.00	67.29
608.00	67.43
607.00	67.80
606.00	68.37
605.00	69.06
604.00	69.84
603.00	70.63
602.00	71.40
601.00	72.14
600.00	72.82
