#Created as New Dataset	Sample 003 By PEService Date Tuesday	 April 30 2013
#cm-1	%T
4000.00	99.92
3999.00	99.92
3998.00	99.92
3997.00	99.92
3996.00	99.92
3995.00	99.92
3994.00	99.91
3993.00	99.90
3992.00	99.90
3991.00	99.89
3990.00	99.89
3989.00	99.90
3988.00	99.90
3987.00	99.90
3986.00	99.90
3985.00	99.90
3984.00	99.90
3983.00	99.90
3982.00	99.90
3981.00	99.90
3980.00	99.90
3979.00	99.90
3978.00	99.90
3977.00	99.91
3976.00	99.92
3975.00	99.92
3974.00	99.92
3973.00	99.92
3972.00	99.91
3971.00	99.91
3970.00	99.91
3969.00	99.91
3968.00	99.91
3967.00	99.91
3966.00	99.91
3965.00	99.91
3964.00	99.92
3963.00	99.92
3962.00	99.92
3961.00	99.93
3960.00	99.93
3959.00	99.93
3958.00	99.92
3957.00	99.92
3956.00	99.92
3955.00	99.92
3954.00	99.93
3953.00	99.93
3952.00	99.93
3951.00	99.94
3950.00	99.94
3949.00	99.95
3948.00	99.95
3947.00	99.95
3946.00	99.95
3945.00	99.94
3944.00	99.94
3943.00	99.93
3942.00	99.93
3941.00	99.92
3940.00	99.92
3939.00	99.93
3938.00	99.93
3937.00	99.93
3936.00	99.94
3935.00	99.95
3934.00	99.95
3933.00	99.95
3932.00	99.94
3931.00	99.93
3930.00	99.92
3929.00	99.92
3928.00	99.92
3927.00	99.92
3926.00	99.92
3925.00	99.92
3924.00	99.93
3923.00	99.93
3922.00	99.94
3921.00	99.95
3920.00	99.95
3919.00	99.96
3918.00	99.96
3917.00	99.96
3916.00	99.95
3915.00	99.95
3914.00	99.94
3913.00	99.94
3912.00	99.94
3911.00	99.94
3910.00	99.94
3909.00	99.93
3908.00	99.93
3907.00	99.92
3906.00	99.92
3905.00	99.92
3904.00	99.92
3903.00	99.92
3902.00	99.93
3901.00	99.93
3900.00	99.93
3899.00	99.93
3898.00	99.93
3897.00	99.93
3896.00	99.94
3895.00	99.94
3894.00	99.94
3893.00	99.94
3892.00	99.94
3891.00	99.94
3890.00	99.94
3889.00	99.94
3888.00	99.94
3887.00	99.95
3886.00	99.95
3885.00	99.95
3884.00	99.94
3883.00	99.95
3882.00	99.95
3881.00	99.95
3880.00	99.95
3879.00	99.95
3878.00	99.95
3877.00	99.95
3876.00	99.96
3875.00	99.96
3874.00	99.96
3873.00	99.95
3872.00	99.94
3871.00	99.94
3870.00	99.94
3869.00	99.93
3868.00	99.93
3867.00	99.92
3866.00	99.92
3865.00	99.92
3864.00	99.92
3863.00	99.92
3862.00	99.93
3861.00	99.94
3860.00	99.94
3859.00	99.94
3858.00	99.93
3857.00	99.93
3856.00	99.93
3855.00	99.93
3854.00	99.93
3853.00	99.93
3852.00	99.93
3851.00	99.93
3850.00	99.93
3849.00	99.94
3848.00	99.94
3847.00	99.95
3846.00	99.95
3845.00	99.95
3844.00	99.94
3843.00	99.94
3842.00	99.93
3841.00	99.93
3840.00	99.92
3839.00	99.92
3838.00	99.92
3837.00	99.93
3836.00	99.93
3835.00	99.93
3834.00	99.93
3833.00	99.93
3832.00	99.93
3831.00	99.93
3830.00	99.93
3829.00	99.94
3828.00	99.94
3827.00	99.95
3826.00	99.95
3825.00	99.96
3824.00	99.95
3823.00	99.95
3822.00	99.94
3821.00	99.93
3820.00	99.92
3819.00	99.92
3818.00	99.92
3817.00	99.92
3816.00	99.92
3815.00	99.92
3814.00	99.92
3813.00	99.93
3812.00	99.93
3811.00	99.93
3810.00	99.94
3809.00	99.94
3808.00	99.94
3807.00	99.93
3806.00	99.94
3805.00	99.94
3804.00	99.94
3803.00	99.94
3802.00	99.94
3801.00	99.94
3800.00	99.93
3799.00	99.94
3798.00	99.94
3797.00	99.94
3796.00	99.95
3795.00	99.95
3794.00	99.95
3793.00	99.95
3792.00	99.95
3791.00	99.95
3790.00	99.96
3789.00	99.95
3788.00	99.95
3787.00	99.95
3786.00	99.95
3785.00	99.95
3784.00	99.96
3783.00	99.96
3782.00	99.97
3781.00	99.96
3780.00	99.96
3779.00	99.95
3778.00	99.95
3777.00	99.94
3776.00	99.95
3775.00	99.95
3774.00	99.96
3773.00	99.96
3772.00	99.96
3771.00	99.96
3770.00	99.95
3769.00	99.94
3768.00	99.93
3767.00	99.93
3766.00	99.94
3765.00	99.94
3764.00	99.94
3763.00	99.94
3762.00	99.94
3761.00	99.95
3760.00	99.95
3759.00	99.95
3758.00	99.94
3757.00	99.94
3756.00	99.93
3755.00	99.92
3754.00	99.91
3753.00	99.91
3752.00	99.91
3751.00	99.92
3750.00	99.92
3749.00	99.92
3748.00	99.92
3747.00	99.93
3746.00	99.93
3745.00	99.94
3744.00	99.95
3743.00	99.96
3742.00	99.97
3741.00	99.97
3740.00	99.97
3739.00	99.97
3738.00	99.96
3737.00	99.95
3736.00	99.95
3735.00	99.95
3734.00	99.94
3733.00	99.94
3732.00	99.94
3731.00	99.94
3730.00	99.95
3729.00	99.96
3728.00	99.97
3727.00	99.97
3726.00	99.97
3725.00	99.98
3724.00	99.98
3723.00	99.98
3722.00	99.97
3721.00	99.96
3720.00	99.95
3719.00	99.94
3718.00	99.94
3717.00	99.93
3716.00	99.93
3715.00	99.93
3714.00	99.94
3713.00	99.94
3712.00	99.94
3711.00	99.94
3710.00	99.94
3709.00	99.93
3708.00	99.93
3707.00	99.92
3706.00	99.92
3705.00	99.93
3704.00	99.93
3703.00	99.94
3702.00	99.95
3701.00	99.95
3700.00	99.95
3699.00	99.95
3698.00	99.95
3697.00	99.94
3696.00	99.94
3695.00	99.93
3694.00	99.92
3693.00	99.91
3692.00	99.90
3691.00	99.89
3690.00	99.89
3689.00	99.88
3688.00	99.88
3687.00	99.89
3686.00	99.90
3685.00	99.91
3684.00	99.91
3683.00	99.91
3682.00	99.90
3681.00	99.89
3680.00	99.87
3679.00	99.85
3678.00	99.84
3677.00	99.82
3676.00	99.80
3675.00	99.79
3674.00	99.79
3673.00	99.80
3672.00	99.81
3671.00	99.82
3670.00	99.82
3669.00	99.82
3668.00	99.81
3667.00	99.80
3666.00	99.79
3665.00	99.78
3664.00	99.77
3663.00	99.76
3662.00	99.76
3661.00	99.75
3660.00	99.74
3659.00	99.73
3658.00	99.72
3657.00	99.71
3656.00	99.70
3655.00	99.69
3654.00	99.68
3653.00	99.68
3652.00	99.67
3651.00	99.66
3650.00	99.64
3649.00	99.63
3648.00	99.62
3647.00	99.62
3646.00	99.61
3645.00	99.59
3644.00	99.58
3643.00	99.57
3642.00	99.56
3641.00	99.55
3640.00	99.54
3639.00	99.53
3638.00	99.52
3637.00	99.50
3636.00	99.48
3635.00	99.46
3634.00	99.43
3633.00	99.41
3632.00	99.40
3631.00	99.38
3630.00	99.36
3629.00	99.35
3628.00	99.33
3627.00	99.32
3626.00	99.31
3625.00	99.31
3624.00	99.29
3623.00	99.28
3622.00	99.26
3621.00	99.23
3620.00	99.21
3619.00	99.19
3618.00	99.18
3617.00	99.16
3616.00	99.14
3615.00	99.12
3614.00	99.10
3613.00	99.08
3612.00	99.07
3611.00	99.06
3610.00	99.05
3609.00	99.03
3608.00	99.01
3607.00	98.99
3606.00	98.97
3605.00	98.95
3604.00	98.93
3603.00	98.91
3602.00	98.89
3601.00	98.86
3600.00	98.84
3599.00	98.82
3598.00	98.79
3597.00	98.77
3596.00	98.74
3595.00	98.72
3594.00	98.70
3593.00	98.67
3592.00	98.65
3591.00	98.63
3590.00	98.61
3589.00	98.59
3588.00	98.56
3587.00	98.54
3586.00	98.51
3585.00	98.48
3584.00	98.45
3583.00	98.43
3582.00	98.40
3581.00	98.38
3580.00	98.35
3579.00	98.33
3578.00	98.30
3577.00	98.27
3576.00	98.25
3575.00	98.22
3574.00	98.19
3573.00	98.16
3572.00	98.13
3571.00	98.10
3570.00	98.07
3569.00	98.05
3568.00	98.03
3567.00	98.01
3566.00	97.98
3565.00	97.95
3564.00	97.92
3563.00	97.90
3562.00	97.87
3561.00	97.84
3560.00	97.81
3559.00	97.77
3558.00	97.74
3557.00	97.70
3556.00	97.66
3555.00	97.63
3554.00	97.60
3553.00	97.58
3552.00	97.55
3551.00	97.51
3550.00	97.48
3549.00	97.45
3548.00	97.42
3547.00	97.40
3546.00	97.37
3545.00	97.35
3544.00	97.32
3543.00	97.28
3542.00	97.25
3541.00	97.20
3540.00	97.16
3539.00	97.12
3538.00	97.08
3537.00	97.04
3536.00	97.01
3535.00	96.97
3534.00	96.94
3533.00	96.90
3532.00	96.86
3531.00	96.82
3530.00	96.78
3529.00	96.75
3528.00	96.72
3527.00	96.69
3526.00	96.65
3525.00	96.61
3524.00	96.57
3523.00	96.53
3522.00	96.48
3521.00	96.44
3520.00	96.40
3519.00	96.36
3518.00	96.32
3517.00	96.28
3516.00	96.24
3515.00	96.20
3514.00	96.16
3513.00	96.13
3512.00	96.09
3511.00	96.05
3510.00	96.01
3509.00	95.96
3508.00	95.92
3507.00	95.88
3506.00	95.83
3505.00	95.79
3504.00	95.75
3503.00	95.71
3502.00	95.67
3501.00	95.64
3500.00	95.60
3499.00	95.56
3498.00	95.52
3497.00	95.48
3496.00	95.44
3495.00	95.40
3494.00	95.36
3493.00	95.32
3492.00	95.28
3491.00	95.24
3490.00	95.19
3489.00	95.14
3488.00	95.10
3487.00	95.05
3486.00	95.00
3485.00	94.96
3484.00	94.92
3483.00	94.89
3482.00	94.86
3481.00	94.83
3480.00	94.80
3479.00	94.76
3478.00	94.71
3477.00	94.67
3476.00	94.63
3475.00	94.59
3474.00	94.56
3473.00	94.52
3472.00	94.50
3471.00	94.47
3470.00	94.45
3469.00	94.43
3468.00	94.39
3467.00	94.35
3466.00	94.30
3465.00	94.24
3464.00	94.19
3463.00	94.14
3462.00	94.10
3461.00	94.07
3460.00	94.03
3459.00	93.99
3458.00	93.94
3457.00	93.90
3456.00	93.85
3455.00	93.80
3454.00	93.76
3453.00	93.72
3452.00	93.68
3451.00	93.64
3450.00	93.60
3449.00	93.56
3448.00	93.51
3447.00	93.47
3446.00	93.43
3445.00	93.38
3444.00	93.33
3443.00	93.29
3442.00	93.24
3441.00	93.20
3440.00	93.17
3439.00	93.14
3438.00	93.12
3437.00	93.09
3436.00	93.06
3435.00	93.01
3434.00	92.96
3433.00	92.91
3432.00	92.85
3431.00	92.80
3430.00	92.76
3429.00	92.71
3428.00	92.65
3427.00	92.59
3426.00	92.54
3425.00	92.49
3424.00	92.44
3423.00	92.39
3422.00	92.34
3421.00	92.30
3420.00	92.24
3419.00	92.19
3418.00	92.14
3417.00	92.10
3416.00	92.06
3415.00	92.02
3414.00	91.98
3413.00	91.94
3412.00	91.89
3411.00	91.85
3410.00	91.80
3409.00	91.75
3408.00	91.70
3407.00	91.65
3406.00	91.60
3405.00	91.56
3404.00	91.52
3403.00	91.50
3402.00	91.47
3401.00	91.44
3400.00	91.39
3399.00	91.33
3398.00	91.26
3397.00	91.19
3396.00	91.14
3395.00	91.09
3394.00	91.05
3393.00	91.01
3392.00	90.96
3391.00	90.91
3390.00	90.85
3389.00	90.78
3388.00	90.72
3387.00	90.66
3386.00	90.61
3385.00	90.57
3384.00	90.52
3383.00	90.48
3382.00	90.43
3381.00	90.39
3380.00	90.34
3379.00	90.29
3378.00	90.24
3377.00	90.19
3376.00	90.13
3375.00	90.08
3374.00	90.04
3373.00	89.99
3372.00	89.95
3371.00	89.90
3370.00	89.85
3369.00	89.80
3368.00	89.75
3367.00	89.70
3366.00	89.65
3365.00	89.60
3364.00	89.54
3363.00	89.48
3362.00	89.42
3361.00	89.36
3360.00	89.31
3359.00	89.25
3358.00	89.20
3357.00	89.15
3356.00	89.10
3355.00	89.06
3354.00	89.01
3353.00	88.96
3352.00	88.91
3351.00	88.85
3350.00	88.80
3349.00	88.75
3348.00	88.70
3347.00	88.65
3346.00	88.60
3345.00	88.56
3344.00	88.51
3343.00	88.47
3342.00	88.43
3341.00	88.38
3340.00	88.34
3339.00	88.29
3338.00	88.24
3337.00	88.20
3336.00	88.15
3335.00	88.11
3334.00	88.06
3333.00	88.02
3332.00	87.98
3331.00	87.93
3330.00	87.89
3329.00	87.86
3328.00	87.83
3327.00	87.79
3326.00	87.76
3325.00	87.73
3324.00	87.70
3323.00	87.67
3322.00	87.64
3321.00	87.61
3320.00	87.58
3319.00	87.54
3318.00	87.50
3317.00	87.47
3316.00	87.43
3315.00	87.40
3314.00	87.38
3313.00	87.36
3312.00	87.34
3311.00	87.31
3310.00	87.29
3309.00	87.26
3308.00	87.24
3307.00	87.22
3306.00	87.21
3305.00	87.19
3304.00	87.18
3303.00	87.18
3302.00	87.17
3301.00	87.15
3300.00	87.14
3299.00	87.12
3298.00	87.10
3297.00	87.09
3296.00	87.08
3295.00	87.08
3294.00	87.08
3293.00	87.07
3292.00	87.06
3291.00	87.05
3290.00	87.03
3289.00	87.02
3288.00	87.02
3287.00	87.01
3286.00	87.01
3285.00	87.00
3284.00	87.00
3283.00	87.00
3282.00	87.00
3281.00	87.00
3280.00	87.00
3279.00	87.00
3278.00	87.01
3277.00	87.01
3276.00	87.01
3275.00	87.01
3274.00	87.02
3273.00	87.03
3272.00	87.04
3271.00	87.05
3270.00	87.07
3269.00	87.08
3268.00	87.09
3267.00	87.09
3266.00	87.10
3265.00	87.11
3264.00	87.12
3263.00	87.14
3262.00	87.15
3261.00	87.17
3260.00	87.19
3259.00	87.21
3258.00	87.22
3257.00	87.24
3256.00	87.26
3255.00	87.27
3254.00	87.29
3253.00	87.30
3252.00	87.31
3251.00	87.33
3250.00	87.34
3249.00	87.36
3248.00	87.37
3247.00	87.39
3246.00	87.41
3245.00	87.42
3244.00	87.44
3243.00	87.46
3242.00	87.48
3241.00	87.49
3240.00	87.51
3239.00	87.52
3238.00	87.53
3237.00	87.55
3236.00	87.56
3235.00	87.58
3234.00	87.60
3233.00	87.61
3232.00	87.63
3231.00	87.65
3230.00	87.68
3229.00	87.70
3228.00	87.73
3227.00	87.76
3226.00	87.79
3225.00	87.83
3224.00	87.86
3223.00	87.88
3222.00	87.91
3221.00	87.94
3220.00	87.97
3219.00	88.01
3218.00	88.05
3217.00	88.09
3216.00	88.13
3215.00	88.17
3214.00	88.20
3213.00	88.24
3212.00	88.28
3211.00	88.32
3210.00	88.36
3209.00	88.41
3208.00	88.45
3207.00	88.50
3206.00	88.54
3205.00	88.58
3204.00	88.62
3203.00	88.66
3202.00	88.70
3201.00	88.75
3200.00	88.79
3199.00	88.83
3198.00	88.86
3197.00	88.90
3196.00	88.94
3195.00	88.97
3194.00	89.01
3193.00	89.05
3192.00	89.08
3191.00	89.12
3190.00	89.16
3189.00	89.20
3188.00	89.24
3187.00	89.27
3186.00	89.31
3185.00	89.34
3184.00	89.37
3183.00	89.39
3182.00	89.42
3181.00	89.45
3180.00	89.48
3179.00	89.51
3178.00	89.54
3177.00	89.57
3176.00	89.60
3175.00	89.62
3174.00	89.65
3173.00	89.67
3172.00	89.70
3171.00	89.72
3170.00	89.74
3169.00	89.77
3168.00	89.79
3167.00	89.82
3166.00	89.84
3165.00	89.87
3164.00	89.89
3163.00	89.91
3162.00	89.93
3161.00	89.95
3160.00	89.97
3159.00	89.99
3158.00	90.01
3157.00	90.02
3156.00	90.04
3155.00	90.05
3154.00	90.07
3153.00	90.08
3152.00	90.10
3151.00	90.12
3150.00	90.13
3149.00	90.15
3148.00	90.16
3147.00	90.18
3146.00	90.19
3145.00	90.20
3144.00	90.21
3143.00	90.22
3142.00	90.23
3141.00	90.24
3140.00	90.24
3139.00	90.25
3138.00	90.26
3137.00	90.27
3136.00	90.28
3135.00	90.29
3134.00	90.29
3133.00	90.29
3132.00	90.30
3131.00	90.30
3130.00	90.30
3129.00	90.30
3128.00	90.31
3127.00	90.31
3126.00	90.31
3125.00	90.31
3124.00	90.31
3123.00	90.30
3122.00	90.30
3121.00	90.29
3120.00	90.28
3119.00	90.28
3118.00	90.28
3117.00	90.28
3116.00	90.28
3115.00	90.27
3114.00	90.27
3113.00	90.26
3112.00	90.25
3111.00	90.25
3110.00	90.24
3109.00	90.23
3108.00	90.22
3107.00	90.22
3106.00	90.21
3105.00	90.20
3104.00	90.20
3103.00	90.19
3102.00	90.19
3101.00	90.18
3100.00	90.17
3099.00	90.16
3098.00	90.16
3097.00	90.15
3096.00	90.15
3095.00	90.15
3094.00	90.14
3093.00	90.14
3092.00	90.13
3091.00	90.11
3090.00	90.10
3089.00	90.09
3088.00	90.09
3087.00	90.08
3086.00	90.07
3085.00	90.06
3084.00	90.04
3083.00	90.03
3082.00	90.02
3081.00	90.00
3080.00	89.99
3079.00	89.97
3078.00	89.95
3077.00	89.94
3076.00	89.92
3075.00	89.90
3074.00	89.88
3073.00	89.86
3072.00	89.83
3071.00	89.81
3070.00	89.78
3069.00	89.75
3068.00	89.72
3067.00	89.69
3066.00	89.66
3065.00	89.62
3064.00	89.58
3063.00	89.54
3062.00	89.50
3061.00	89.47
3060.00	89.43
3059.00	89.38
3058.00	89.34
3057.00	89.29
3056.00	89.24
3055.00	89.19
3054.00	89.14
3053.00	89.09
3052.00	89.04
3051.00	88.99
3050.00	88.94
3049.00	88.89
3048.00	88.83
3047.00	88.78
3046.00	88.73
3045.00	88.67
3044.00	88.61
3043.00	88.55
3042.00	88.49
3041.00	88.43
3040.00	88.37
3039.00	88.31
3038.00	88.25
3037.00	88.19
3036.00	88.12
3035.00	88.05
3034.00	87.98
3033.00	87.90
3032.00	87.82
3031.00	87.74
3030.00	87.65
3029.00	87.57
3028.00	87.48
3027.00	87.41
3026.00	87.35
3025.00	87.29
3024.00	87.25
3023.00	87.22
3022.00	87.20
3021.00	87.18
3020.00	87.17
3019.00	87.17
3018.00	87.18
3017.00	87.20
3016.00	87.23
3015.00	87.26
3014.00	87.31
3013.00	87.37
3012.00	87.42
3011.00	87.48
3010.00	87.54
3009.00	87.59
3008.00	87.64
3007.00	87.68
3006.00	87.72
3005.00	87.74
3004.00	87.77
3003.00	87.78
3002.00	87.80
3001.00	87.81
3000.00	87.81
2999.00	87.80
2998.00	87.79
2997.00	87.77
2996.00	87.74
2995.00	87.72
2994.00	87.69
2993.00	87.66
2992.00	87.63
2991.00	87.60
2990.00	87.56
2989.00	87.52
2988.00	87.48
2987.00	87.44
2986.00	87.39
2985.00	87.35
2984.00	87.31
2983.00	87.27
2982.00	87.22
2981.00	87.18
2980.00	87.13
2979.00	87.07
2978.00	87.01
2977.00	86.94
2976.00	86.88
2975.00	86.81
2974.00	86.74
2973.00	86.67
2972.00	86.59
2971.00	86.51
2970.00	86.44
2969.00	86.36
2968.00	86.28
2967.00	86.21
2966.00	86.15
2965.00	86.09
2964.00	86.05
2963.00	86.01
2962.00	85.98
2961.00	85.95
2960.00	85.92
2959.00	85.90
2958.00	85.88
2957.00	85.87
2956.00	85.86
2955.00	85.86
2954.00	85.87
2953.00	85.88
2952.00	85.89
2951.00	85.89
2950.00	85.90
2949.00	85.92
2948.00	85.93
2947.00	85.94
2946.00	85.96
2945.00	85.96
2944.00	85.96
2943.00	85.96
2942.00	85.94
2941.00	85.93
2940.00	85.91
2939.00	85.89
2938.00	85.87
2937.00	85.85
2936.00	85.83
2935.00	85.81
2934.00	85.79
2933.00	85.77
2932.00	85.74
2931.00	85.71
2930.00	85.69
2929.00	85.66
2928.00	85.62
2927.00	85.59
2926.00	85.56
2925.00	85.52
2924.00	85.49
2923.00	85.46
2922.00	85.44
2921.00	85.42
2920.00	85.40
2919.00	85.39
2918.00	85.39
2917.00	85.39
2916.00	85.41
2915.00	85.43
2914.00	85.46
2913.00	85.49
2912.00	85.52
2911.00	85.55
2910.00	85.57
2909.00	85.60
2908.00	85.62
2907.00	85.64
2906.00	85.66
2905.00	85.68
2904.00	85.70
2903.00	85.71
2902.00	85.73
2901.00	85.74
2900.00	85.75
2899.00	85.76
2898.00	85.77
2897.00	85.78
2896.00	85.79
2895.00	85.80
2894.00	85.81
2893.00	85.82
2892.00	85.83
2891.00	85.84
2890.00	85.84
2889.00	85.85
2888.00	85.86
2887.00	85.88
2886.00	85.89
2885.00	85.91
2884.00	85.92
2883.00	85.94
2882.00	85.96
2881.00	85.98
2880.00	86.01
2879.00	86.03
2878.00	86.05
2877.00	86.07
2876.00	86.09
2875.00	86.11
2874.00	86.13
2873.00	86.15
2872.00	86.18
2871.00	86.21
2870.00	86.23
2869.00	86.26
2868.00	86.29
2867.00	86.31
2866.00	86.34
2865.00	86.36
2864.00	86.39
2863.00	86.41
2862.00	86.44
2861.00	86.46
2860.00	86.49
2859.00	86.51
2858.00	86.53
2857.00	86.54
2856.00	86.55
2855.00	86.56
2854.00	86.57
2853.00	86.59
2852.00	86.61
2851.00	86.63
2850.00	86.66
2849.00	86.70
2848.00	86.74
2847.00	86.80
2846.00	86.86
2845.00	86.91
2844.00	86.97
2843.00	87.02
2842.00	87.07
2841.00	87.12
2840.00	87.16
2839.00	87.20
2838.00	87.24
2837.00	87.28
2836.00	87.32
2835.00	87.36
2834.00	87.39
2833.00	87.43
2832.00	87.45
2831.00	87.48
2830.00	87.52
2829.00	87.55
2828.00	87.59
2827.00	87.63
2826.00	87.68
2825.00	87.72
2824.00	87.76
2823.00	87.80
2822.00	87.84
2821.00	87.88
2820.00	87.92
2819.00	87.96
2818.00	88.00
2817.00	88.04
2816.00	88.09
2815.00	88.14
2814.00	88.18
2813.00	88.23
2812.00	88.27
2811.00	88.32
2810.00	88.37
2809.00	88.41
2808.00	88.46
2807.00	88.51
2806.00	88.56
2805.00	88.61
2804.00	88.66
2803.00	88.71
2802.00	88.76
2801.00	88.81
2800.00	88.86
2799.00	88.91
2798.00	88.96
2797.00	89.01
2796.00	89.06
2795.00	89.11
2794.00	89.17
2793.00	89.22
2792.00	89.27
2791.00	89.32
2790.00	89.37
2789.00	89.42
2788.00	89.47
2787.00	89.51
2786.00	89.56
2785.00	89.61
2784.00	89.66
2783.00	89.71
2782.00	89.76
2781.00	89.80
2780.00	89.85
2779.00	89.90
2778.00	89.94
2777.00	89.99
2776.00	90.04
2775.00	90.08
2774.00	90.13
2773.00	90.17
2772.00	90.21
2771.00	90.25
2770.00	90.29
2769.00	90.33
2768.00	90.37
2767.00	90.41
2766.00	90.45
2765.00	90.48
2764.00	90.52
2763.00	90.56
2762.00	90.60
2761.00	90.64
2760.00	90.68
2759.00	90.72
2758.00	90.76
2757.00	90.80
2756.00	90.84
2755.00	90.87
2754.00	90.91
2753.00	90.95
2752.00	90.99
2751.00	91.03
2750.00	91.08
2749.00	91.12
2748.00	91.17
2747.00	91.21
2746.00	91.25
2745.00	91.29
2744.00	91.33
2743.00	91.37
2742.00	91.40
2741.00	91.44
2740.00	91.48
2739.00	91.52
2738.00	91.56
2737.00	91.60
2736.00	91.64
2735.00	91.68
2734.00	91.72
2733.00	91.76
2732.00	91.79
2731.00	91.82
2730.00	91.86
2729.00	91.89
2728.00	91.93
2727.00	91.96
2726.00	91.99
2725.00	92.02
2724.00	92.05
2723.00	92.08
2722.00	92.11
2721.00	92.14
2720.00	92.17
2719.00	92.20
2718.00	92.23
2717.00	92.26
2716.00	92.28
2715.00	92.30
2714.00	92.33
2713.00	92.35
2712.00	92.38
2711.00	92.40
2710.00	92.42
2709.00	92.43
2708.00	92.45
2707.00	92.47
2706.00	92.49
2705.00	92.50
2704.00	92.52
2703.00	92.54
2702.00	92.56
2701.00	92.59
2700.00	92.61
2699.00	92.62
2698.00	92.64
2697.00	92.65
2696.00	92.67
2695.00	92.68
2694.00	92.70
2693.00	92.72
2692.00	92.73
2691.00	92.75
2690.00	92.76
2689.00	92.78
2688.00	92.79
2687.00	92.80
2686.00	92.81
2685.00	92.83
2684.00	92.84
2683.00	92.86
2682.00	92.87
2681.00	92.88
2680.00	92.90
2679.00	92.91
2678.00	92.92
2677.00	92.94
2676.00	92.95
2675.00	92.97
2674.00	92.99
2673.00	93.00
2672.00	93.01
2671.00	93.03
2670.00	93.04
2669.00	93.05
2668.00	93.06
2667.00	93.08
2666.00	93.09
2665.00	93.11
2664.00	93.12
2663.00	93.13
2662.00	93.14
2661.00	93.16
2660.00	93.17
2659.00	93.19
2658.00	93.21
2657.00	93.22
2656.00	93.24
2655.00	93.26
2654.00	93.27
2653.00	93.29
2652.00	93.30
2651.00	93.32
2650.00	93.34
2649.00	93.36
2648.00	93.38
2647.00	93.39
2646.00	93.40
2645.00	93.41
2644.00	93.42
2643.00	93.44
2642.00	93.45
2641.00	93.46
2640.00	93.47
2639.00	93.48
2638.00	93.50
2637.00	93.51
2636.00	93.53
2635.00	93.54
2634.00	93.56
2633.00	93.57
2632.00	93.59
2631.00	93.60
2630.00	93.61
2629.00	93.62
2628.00	93.62
2627.00	93.63
2626.00	93.63
2625.00	93.63
2624.00	93.64
2623.00	93.64
2622.00	93.65
2621.00	93.65
2620.00	93.66
2619.00	93.66
2618.00	93.66
2617.00	93.66
2616.00	93.66
2615.00	93.66
2614.00	93.66
2613.00	93.67
2612.00	93.67
2611.00	93.68
2610.00	93.68
2609.00	93.67
2608.00	93.67
2607.00	93.66
2606.00	93.65
2605.00	93.64
2604.00	93.63
2603.00	93.62
2602.00	93.61
2601.00	93.61
2600.00	93.61
2599.00	93.60
2598.00	93.60
2597.00	93.59
2596.00	93.58
2595.00	93.56
2594.00	93.55
2593.00	93.54
2592.00	93.53
2591.00	93.52
2590.00	93.51
2589.00	93.49
2588.00	93.47
2587.00	93.45
2586.00	93.43
2585.00	93.41
2584.00	93.40
2583.00	93.39
2582.00	93.38
2581.00	93.37
2580.00	93.36
2579.00	93.34
2578.00	93.33
2577.00	93.31
2576.00	93.30
2575.00	93.28
2574.00	93.27
2573.00	93.26
2572.00	93.25
2571.00	93.24
2570.00	93.23
2569.00	93.22
2568.00	93.21
2567.00	93.19
2566.00	93.18
2565.00	93.17
2564.00	93.16
2563.00	93.16
2562.00	93.16
2561.00	93.16
2560.00	93.16
2559.00	93.16
2558.00	93.16
2557.00	93.17
2556.00	93.18
2555.00	93.20
2554.00	93.21
2553.00	93.23
2552.00	93.25
2551.00	93.26
2550.00	93.28
2549.00	93.30
2548.00	93.32
2547.00	93.35
2546.00	93.37
2545.00	93.40
2544.00	93.43
2543.00	93.46
2542.00	93.49
2541.00	93.51
2540.00	93.54
2539.00	93.56
2538.00	93.59
2537.00	93.62
2536.00	93.65
2535.00	93.67
2534.00	93.70
2533.00	93.73
2532.00	93.75
2531.00	93.78
2530.00	93.81
2529.00	93.84
2528.00	93.87
2527.00	93.90
2526.00	93.93
2525.00	93.96
2524.00	93.99
2523.00	94.02
2522.00	94.04
2521.00	94.07
2520.00	94.09
2519.00	94.11
2518.00	94.13
2517.00	94.15
2516.00	94.17
2515.00	94.19
2514.00	94.21
2513.00	94.23
2512.00	94.25
2511.00	94.28
2510.00	94.30
2509.00	94.32
2508.00	94.34
2507.00	94.36
2506.00	94.38
2505.00	94.39
2504.00	94.40
2503.00	94.40
2502.00	94.41
2501.00	94.42
2500.00	94.43
2499.00	94.44
2498.00	94.45
2497.00	94.46
2496.00	94.46
2495.00	94.47
2494.00	94.47
2493.00	94.48
2492.00	94.48
2491.00	94.49
2490.00	94.50
2489.00	94.51
2488.00	94.52
2487.00	94.54
2486.00	94.56
2485.00	94.58
2484.00	94.60
2483.00	94.62
2482.00	94.64
2481.00	94.66
2480.00	94.69
2479.00	94.71
2478.00	94.73
2477.00	94.76
2476.00	94.78
2475.00	94.81
2474.00	94.84
2473.00	94.87
2472.00	94.89
2471.00	94.91
2470.00	94.94
2469.00	94.97
2468.00	94.99
2467.00	95.03
2466.00	95.06
2465.00	95.09
2464.00	95.12
2463.00	95.15
2462.00	95.17
2461.00	95.20
2460.00	95.23
2459.00	95.26
2458.00	95.29
2457.00	95.32
2456.00	95.35
2455.00	95.38
2454.00	95.40
2453.00	95.42
2452.00	95.45
2451.00	95.48
2450.00	95.51
2449.00	95.54
2448.00	95.57
2447.00	95.60
2446.00	95.63
2445.00	95.66
2444.00	95.68
2443.00	95.71
2442.00	95.73
2441.00	95.76
2440.00	95.79
2439.00	95.83
2438.00	95.86
2437.00	95.89
2436.00	95.92
2435.00	95.95
2434.00	95.98
2433.00	96.02
2432.00	96.05
2431.00	96.08
2430.00	96.12
2429.00	96.15
2428.00	96.19
2427.00	96.23
2426.00	96.27
2425.00	96.30
2424.00	96.34
2423.00	96.37
2422.00	96.40
2421.00	96.43
2420.00	96.47
2419.00	96.50
2418.00	96.53
2417.00	96.56
2416.00	96.59
2415.00	96.62
2414.00	96.65
2413.00	96.68
2412.00	96.71
2411.00	96.74
2410.00	96.77
2409.00	96.79
2408.00	96.82
2407.00	96.84
2406.00	96.87
2405.00	96.89
2404.00	96.92
2403.00	96.95
2402.00	96.98
2401.00	97.01
2400.00	97.03
2399.00	97.06
2398.00	97.08
2397.00	97.10
2396.00	97.12
2395.00	97.15
2394.00	97.17
2393.00	97.19
2392.00	97.21
2391.00	97.22
2390.00	97.24
2389.00	97.26
2388.00	97.28
2387.00	97.30
2386.00	97.32
2385.00	97.34
2384.00	97.36
2383.00	97.39
2382.00	97.41
2381.00	97.45
2380.00	97.49
2379.00	97.53
2378.00	97.56
2377.00	97.59
2376.00	97.60
2375.00	97.61
2374.00	97.61
2373.00	97.63
2372.00	97.64
2371.00	97.67
2370.00	97.70
2369.00	97.72
2368.00	97.74
2367.00	97.76
2366.00	97.77
2365.00	97.77
2364.00	97.77
2363.00	97.79
2362.00	97.81
2361.00	97.84
2360.00	97.88
2359.00	97.92
2358.00	97.95
2357.00	97.97
2356.00	97.98
2355.00	97.97
2354.00	97.98
2353.00	98.00
2352.00	98.03
2351.00	98.07
2350.00	98.10
2349.00	98.10
2348.00	98.10
2347.00	98.10
2346.00	98.11
2345.00	98.13
2344.00	98.15
2343.00	98.16
2342.00	98.17
2341.00	98.18
2340.00	98.20
2339.00	98.21
2338.00	98.23
2337.00	98.25
2336.00	98.26
2335.00	98.28
2334.00	98.28
2333.00	98.29
2332.00	98.31
2331.00	98.32
2330.00	98.33
2329.00	98.34
2328.00	98.35
2327.00	98.36
2326.00	98.36
2325.00	98.37
2324.00	98.38
2323.00	98.38
2322.00	98.39
2321.00	98.40
2320.00	98.41
2319.00	98.41
2318.00	98.41
2317.00	98.42
2316.00	98.44
2315.00	98.45
2314.00	98.47
2313.00	98.48
2312.00	98.49
2311.00	98.49
2310.00	98.50
2309.00	98.50
2308.00	98.50
2307.00	98.51
2306.00	98.51
2305.00	98.52
2304.00	98.51
2303.00	98.51
2302.00	98.51
2301.00	98.52
2300.00	98.53
2299.00	98.53
2298.00	98.54
2297.00	98.54
2296.00	98.54
2295.00	98.54
2294.00	98.55
2293.00	98.55
2292.00	98.56
2291.00	98.56
2290.00	98.57
2289.00	98.57
2288.00	98.58
2287.00	98.58
2286.00	98.58
2285.00	98.59
2284.00	98.59
2283.00	98.60
2282.00	98.61
2281.00	98.61
2280.00	98.62
2279.00	98.62
2278.00	98.63
2277.00	98.64
2276.00	98.65
2275.00	98.66
2274.00	98.67
2273.00	98.68
2272.00	98.69
2271.00	98.70
2270.00	98.71
2269.00	98.71
2268.00	98.71
2267.00	98.71
2266.00	98.72
2265.00	98.72
2264.00	98.72
2263.00	98.73
2262.00	98.74
2261.00	98.74
2260.00	98.75
2259.00	98.76
2258.00	98.77
2257.00	98.77
2256.00	98.78
2255.00	98.78
2254.00	98.79
2253.00	98.79
2252.00	98.79
2251.00	98.80
2250.00	98.80
2249.00	98.80
2248.00	98.80
2247.00	98.80
2246.00	98.80
2245.00	98.80
2244.00	98.81
2243.00	98.81
2242.00	98.82
2241.00	98.82
2240.00	98.83
2239.00	98.83
2238.00	98.84
2237.00	98.84
2236.00	98.84
2235.00	98.84
2234.00	98.84
2233.00	98.84
2232.00	98.84
2231.00	98.84
2230.00	98.84
2229.00	98.83
2228.00	98.83
2227.00	98.83
2226.00	98.83
2225.00	98.83
2224.00	98.84
2223.00	98.83
2222.00	98.83
2221.00	98.83
2220.00	98.84
2219.00	98.84
2218.00	98.84
2217.00	98.85
2216.00	98.85
2215.00	98.85
2214.00	98.84
2213.00	98.84
2212.00	98.83
2211.00	98.83
2210.00	98.83
2209.00	98.83
2208.00	98.83
2207.00	98.83
2206.00	98.83
2205.00	98.83
2204.00	98.83
2203.00	98.83
2202.00	98.83
2201.00	98.83
2200.00	98.82
2199.00	98.82
2198.00	98.81
2197.00	98.81
2196.00	98.81
2195.00	98.80
2194.00	98.81
2193.00	98.80
2192.00	98.80
2191.00	98.80
2190.00	98.80
2189.00	98.80
2188.00	98.79
2187.00	98.79
2186.00	98.78
2185.00	98.78
2184.00	98.78
2183.00	98.78
2182.00	98.78
2181.00	98.78
2180.00	98.78
2179.00	98.77
2178.00	98.77
2177.00	98.77
2176.00	98.78
2175.00	98.78
2174.00	98.78
2173.00	98.78
2172.00	98.78
2171.00	98.77
2170.00	98.77
2169.00	98.76
2168.00	98.75
2167.00	98.75
2166.00	98.75
2165.00	98.75
2164.00	98.75
2163.00	98.75
2162.00	98.75
2161.00	98.74
2160.00	98.73
2159.00	98.73
2158.00	98.73
2157.00	98.72
2156.00	98.72
2155.00	98.72
2154.00	98.71
2153.00	98.71
2152.00	98.71
2151.00	98.71
2150.00	98.71
2149.00	98.70
2148.00	98.69
2147.00	98.69
2146.00	98.68
2145.00	98.68
2144.00	98.67
2143.00	98.67
2142.00	98.66
2141.00	98.65
2140.00	98.65
2139.00	98.64
2138.00	98.64
2137.00	98.63
2136.00	98.63
2135.00	98.63
2134.00	98.63
2133.00	98.63
2132.00	98.62
2131.00	98.62
2130.00	98.62
2129.00	98.62
2128.00	98.62
2127.00	98.62
2126.00	98.63
2125.00	98.63
2124.00	98.63
2123.00	98.63
2122.00	98.62
2121.00	98.61
2120.00	98.61
2119.00	98.60
2118.00	98.59
2117.00	98.58
2116.00	98.58
2115.00	98.58
2114.00	98.58
2113.00	98.58
2112.00	98.58
2111.00	98.58
2110.00	98.58
2109.00	98.58
2108.00	98.58
2107.00	98.57
2106.00	98.57
2105.00	98.56
2104.00	98.56
2103.00	98.56
2102.00	98.56
2101.00	98.55
2100.00	98.54
2099.00	98.54
2098.00	98.53
2097.00	98.53
2096.00	98.53
2095.00	98.52
2094.00	98.52
2093.00	98.51
2092.00	98.51
2091.00	98.50
2090.00	98.51
2089.00	98.51
2088.00	98.51
2087.00	98.52
2086.00	98.52
2085.00	98.52
2084.00	98.53
2083.00	98.53
2082.00	98.54
2081.00	98.55
2080.00	98.55
2079.00	98.56
2078.00	98.57
2077.00	98.58
2076.00	98.59
2075.00	98.60
2074.00	98.60
2073.00	98.61
2072.00	98.61
2071.00	98.61
2070.00	98.62
2069.00	98.62
2068.00	98.62
2067.00	98.62
2066.00	98.62
2065.00	98.63
2064.00	98.63
2063.00	98.64
2062.00	98.65
2061.00	98.65
2060.00	98.66
2059.00	98.66
2058.00	98.66
2057.00	98.67
2056.00	98.67
2055.00	98.68
2054.00	98.68
2053.00	98.68
2052.00	98.68
2051.00	98.68
2050.00	98.68
2049.00	98.67
2048.00	98.67
2047.00	98.66
2046.00	98.65
2045.00	98.65
2044.00	98.64
2043.00	98.64
2042.00	98.64
2041.00	98.64
2040.00	98.65
2039.00	98.65
2038.00	98.65
2037.00	98.65
2036.00	98.64
2035.00	98.63
2034.00	98.63
2033.00	98.63
2032.00	98.63
2031.00	98.63
2030.00	98.63
2029.00	98.63
2028.00	98.63
2027.00	98.62
2026.00	98.62
2025.00	98.61
2024.00	98.61
2023.00	98.61
2022.00	98.62
2021.00	98.61
2020.00	98.61
2019.00	98.61
2018.00	98.61
2017.00	98.61
2016.00	98.60
2015.00	98.60
2014.00	98.58
2013.00	98.58
2012.00	98.57
2011.00	98.57
2010.00	98.56
2009.00	98.56
2008.00	98.56
2007.00	98.56
2006.00	98.56
2005.00	98.57
2004.00	98.57
2003.00	98.57
2002.00	98.57
2001.00	98.56
2000.00	98.56
1999.00	98.56
1998.00	98.56
1997.00	98.56
1996.00	98.55
1995.00	98.54
1994.00	98.52
1993.00	98.51
1992.00	98.51
1991.00	98.52
1990.00	98.53
1989.00	98.54
1988.00	98.54
1987.00	98.55
1986.00	98.56
1985.00	98.56
1984.00	98.57
1983.00	98.57
1982.00	98.57
1981.00	98.57
1980.00	98.57
1979.00	98.57
1978.00	98.56
1977.00	98.56
1976.00	98.55
1975.00	98.55
1974.00	98.55
1973.00	98.54
1972.00	98.54
1971.00	98.53
1970.00	98.51
1969.00	98.49
1968.00	98.48
1967.00	98.48
1966.00	98.48
1965.00	98.50
1964.00	98.50
1963.00	98.51
1962.00	98.51
1961.00	98.51
1960.00	98.50
1959.00	98.50
1958.00	98.50
1957.00	98.49
1956.00	98.49
1955.00	98.49
1954.00	98.49
1953.00	98.50
1952.00	98.50
1951.00	98.50
1950.00	98.50
1949.00	98.50
1948.00	98.50
1947.00	98.49
1946.00	98.48
1945.00	98.46
1944.00	98.45
1943.00	98.44
1942.00	98.45
1941.00	98.47
1940.00	98.49
1939.00	98.50
1938.00	98.51
1937.00	98.51
1936.00	98.52
1935.00	98.52
1934.00	98.52
1933.00	98.52
1932.00	98.53
1931.00	98.53
1930.00	98.53
1929.00	98.53
1928.00	98.53
1927.00	98.53
1926.00	98.54
1925.00	98.54
1924.00	98.55
1923.00	98.56
1922.00	98.56
1921.00	98.57
1920.00	98.58
1919.00	98.59
1918.00	98.59
1917.00	98.60
1916.00	98.57
1915.00	98.58
1914.00	98.59
1913.00	98.59
1912.00	98.59
1911.00	98.58
1910.00	98.57
1909.00	98.58
1908.00	98.59
1907.00	98.60
1906.00	98.61
1905.00	98.62
1904.00	98.63
1903.00	98.64
1902.00	98.64
1901.00	98.65
1900.00	98.66
1899.00	98.66
1898.00	98.67
1897.00	98.67
1896.00	98.68
1895.00	98.68
1894.00	98.68
1893.00	98.69
1892.00	98.69
1891.00	98.70
1890.00	98.70
1889.00	98.65
1888.00	98.66
1887.00	98.67
1886.00	98.68
1885.00	98.68
1884.00	98.68
1883.00	98.68
1882.00	98.68
1881.00	98.68
1880.00	98.68
1879.00	98.68
1878.00	98.68
1877.00	98.68
1876.00	98.67
1875.00	98.67
1874.00	98.66
1873.00	98.64
1872.00	98.62
1871.00	98.60
1870.00	98.57
1869.00	98.54
1868.00	98.54
1867.00	98.55
1866.00	98.56
1865.00	98.56
1864.00	98.56
1863.00	98.56
1862.00	98.55
1861.00	98.54
1860.00	98.53
1859.00	98.53
1858.00	98.53
1857.00	98.53
1856.00	98.53
1855.00	98.53
1854.00	98.52
1853.00	98.50
1852.00	98.48
1851.00	98.46
1850.00	98.43
1849.00	98.40
1848.00	98.37
1847.00	98.36
1846.00	98.34
1845.00	98.32
1844.00	98.31
1843.00	98.31
1842.00	98.32
1841.00	98.33
1840.00	98.33
1839.00	98.32
1838.00	98.30
1837.00	98.29
1836.00	98.28
1835.00	98.27
1834.00	98.27
1833.00	98.26
1832.00	98.24
1831.00	98.21
1830.00	98.18
1829.00	98.16
1828.00	98.13
1827.00	98.09
1826.00	98.06
1825.00	98.04
1824.00	98.03
1823.00	98.03
1822.00	98.02
1821.00	98.00
1820.00	97.97
1819.00	97.94
1818.00	97.96
1817.00	97.94
1816.00	97.91
1815.00	97.88
1814.00	97.86
1813.00	97.83
1812.00	97.80
1811.00	97.77
1810.00	97.74
1809.00	97.71
1808.00	97.68
1807.00	97.64
1806.00	97.61
1805.00	97.57
1804.00	97.54
1803.00	97.37
1802.00	97.32
1801.00	97.29
1800.00	97.26
1799.00	97.23
1798.00	97.18
1797.00	97.14
1796.00	97.09
1795.00	97.05
1794.00	97.00
1793.00	96.94
1792.00	96.88
1791.00	96.83
1790.00	96.80
1789.00	96.77
1788.00	96.73
1787.00	96.67
1786.00	96.60
1785.00	96.55
1784.00	96.50
1783.00	96.45
1782.00	96.41
1781.00	96.35
1780.00	96.29
1779.00	96.24
1778.00	96.18
1777.00	96.13
1776.00	96.08
1775.00	96.03
1774.00	95.97
1773.00	95.90
1772.00	95.81
1771.00	95.71
1770.00	95.60
1769.00	95.49
1768.00	95.39
1767.00	95.31
1766.00	95.23
1765.00	95.13
1764.00	95.00
1763.00	94.83
1762.00	94.63
1761.00	94.41
1760.00	94.19
1759.00	93.95
1758.00	93.70
1757.00	93.42
1756.00	93.13
1755.00	92.82
1754.00	92.49
1753.00	92.12
1752.00	91.70
1751.00	91.25
1750.00	90.80
1749.00	90.37
1748.00	89.94
1747.00	89.48
1746.00	88.99
1745.00	88.49
1744.00	87.96
1743.00	87.43
1742.00	86.88
1741.00	86.25
1740.00	85.55
1739.00	84.81
1738.00	84.08
1737.00	83.36
1736.00	82.56
1735.00	81.58
1734.00	80.43
1733.00	79.31
1732.00	78.34
1731.00	77.48
1730.00	76.62
1729.00	75.72
1728.00	74.79
1727.00	73.87
1726.00	72.96
1725.00	72.05
1724.00	71.16
1723.00	70.32
1722.00	69.55
1721.00	68.84
1720.00	68.13
1719.00	67.38
1718.00	66.59
1717.00	65.86
1716.00	65.27
1715.00	64.82
1714.00	64.45
1713.00	64.13
1712.00	63.86
1711.00	63.65
1710.00	63.52
1709.00	63.47
1708.00	63.51
1707.00	63.65
1706.00	63.92
1705.00	64.29
1704.00	64.72
1703.00	65.21
1702.00	65.85
1701.00	66.71
1700.00	67.75
1699.00	68.75
1698.00	69.67
1697.00	70.64
1696.00	71.80
1695.00	73.09
1694.00	74.31
1693.00	75.37
1692.00	76.35
1691.00	77.34
1690.00	78.38
1689.00	79.39
1688.00	80.29
1687.00	81.11
1686.00	81.95
1685.00	82.93
1684.00	83.99
1683.00	84.96
1682.00	85.72
1681.00	86.33
1680.00	86.87
1679.00	87.40
1678.00	87.91
1677.00	88.40
1676.00	88.88
1675.00	89.33
1674.00	89.74
1673.00	90.07
1672.00	90.36
1671.00	90.63
1670.00	90.91
1669.00	91.19
1668.00	91.44
1667.00	91.66
1666.00	91.85
1665.00	92.02
1664.00	92.19
1663.00	92.35
1662.00	92.49
1661.00	92.62
1660.00	92.71
1659.00	92.79
1658.00	92.84
1657.00	92.86
1656.00	92.83
1655.00	92.76
1654.00	92.65
1653.00	92.50
1652.00	92.33
1651.00	92.20
1650.00	92.05
1649.00	91.80
1648.00	91.40
1647.00	90.86
1646.00	90.24
1645.00	89.64
1644.00	89.08
1643.00	88.54
1642.00	88.00
1641.00	87.46
1640.00	86.96
1639.00	86.52
1638.00	86.18
1637.00	85.98
1636.00	85.98
1635.00	86.21
1634.00	86.60
1633.00	87.08
1632.00	87.63
1631.00	88.25
1630.00	88.92
1629.00	89.63
1628.00	90.33
1627.00	90.96
1626.00	91.51
1625.00	92.00
1624.00	92.43
1623.00	92.84
1622.00	93.19
1621.00	93.46
1620.00	93.67
1619.00	93.84
1618.00	94.02
1617.00	94.22
1616.00	94.44
1615.00	94.66
1614.00	94.85
1613.00	95.01
1612.00	95.15
1611.00	95.28
1610.00	95.40
1609.00	95.53
1608.00	95.67
1607.00	95.80
1606.00	95.92
1605.00	96.04
1604.00	96.15
1603.00	96.25
1602.00	96.35
1601.00	96.44
1600.00	96.53
1599.00	96.61
1598.00	96.68
1597.00	96.74
1596.00	96.80
1595.00	96.86
1594.00	96.92
1593.00	96.97
1592.00	97.02
1591.00	97.07
1590.00	97.11
1589.00	97.16
1588.00	97.20
1587.00	97.25
1586.00	97.29
1585.00	97.32
1584.00	97.35
1583.00	97.39
1582.00	97.42
1581.00	97.45
1580.00	97.44
1579.00	97.42
1578.00	97.39
1577.00	97.37
1576.00	97.39
1575.00	97.44
1574.00	97.52
1573.00	97.59
1572.00	97.65
1571.00	97.67
1570.00	97.68
1569.00	97.69
1568.00	97.69
1567.00	97.70
1566.00	97.70
1565.00	97.71
1564.00	97.70
1563.00	97.68
1562.00	97.66
1561.00	97.66
1560.00	97.65
1559.00	97.63
1558.00	97.62
1557.00	97.60
1556.00	97.58
1555.00	97.56
1554.00	97.55
1553.00	97.55
1552.00	97.54
1551.00	97.54
1550.00	97.55
1549.00	97.57
1548.00	97.58
1547.00	97.57
1546.00	97.54
1545.00	97.50
1544.00	97.49
1543.00	97.49
1542.00	97.49
1541.00	97.47
1540.00	97.45
1539.00	97.43
1538.00	97.44
1537.00	97.47
1536.00	97.50
1535.00	97.49
1534.00	97.45
1533.00	97.41
1532.00	97.37
1531.00	97.34
1530.00	97.31
1529.00	97.26
1528.00	97.20
1527.00	97.15
1526.00	97.11
1525.00	97.08
1524.00	97.03
1523.00	96.95
1522.00	96.85
1521.00	96.76
1520.00	96.71
1519.00	96.68
1518.00	96.63
1517.00	96.55
1516.00	96.46
1515.00	96.36
1514.00	96.26
1513.00	96.13
1512.00	95.98
1511.00	95.79
1510.00	95.58
1509.00	95.34
1508.00	95.10
1507.00	94.88
1506.00	94.62
1505.00	94.31
1504.00	93.97
1503.00	93.59
1502.00	93.11
1501.00	92.49
1500.00	91.71
1499.00	90.73
1498.00	89.57
1497.00	88.25
1496.00	86.89
1495.00	85.64
1494.00	84.58
1493.00	83.67
1492.00	82.85
1491.00	82.08
1490.00	81.44
1489.00	80.95
1488.00	80.60
1487.00	80.29
1486.00	79.97
1485.00	79.60
1484.00	79.18
1483.00	78.73
1482.00	78.28
1481.00	77.88
1480.00	77.57
1479.00	77.39
1478.00	77.35
1477.00	77.47
1476.00	77.74
1475.00	78.19
1474.00	78.85
1473.00	79.72
1472.00	80.73
1471.00	81.73
1470.00	82.65
1469.00	83.47
1468.00	84.23
1467.00	84.95
1466.00	85.65
1465.00	86.27
1464.00	86.80
1463.00	87.20
1462.00	87.51
1461.00	87.73
1460.00	87.89
1459.00	88.03
1458.00	88.18
1457.00	88.39
1456.00	88.62
1455.00	88.82
1454.00	88.97
1453.00	89.08
1452.00	89.14
1451.00	89.18
1450.00	89.19
1449.00	89.18
1448.00	89.17
1447.00	89.16
1446.00	89.14
1445.00	89.13
1444.00	89.10
1443.00	89.06
1442.00	89.02
1441.00	88.97
1440.00	88.89
1439.00	88.79
1438.00	88.64
1437.00	88.47
1436.00	88.30
1435.00	88.13
1434.00	87.96
1433.00	87.76
1432.00	87.52
1431.00	87.23
1430.00	86.90
1429.00	86.57
1428.00	86.24
1427.00	85.93
1426.00	85.63
1425.00	85.35
1424.00	85.12
1423.00	84.94
1422.00	84.80
1421.00	84.69
1420.00	84.61
1419.00	84.60
1418.00	84.66
1417.00	84.79
1416.00	84.96
1415.00	85.14
1414.00	85.32
1413.00	85.50
1412.00	85.68
1411.00	85.86
1410.00	86.03
1409.00	86.17
1408.00	86.27
1407.00	86.33
1406.00	86.35
1405.00	86.35
1404.00	86.32
1403.00	86.27
1402.00	86.19
1401.00	86.07
1400.00	85.92
1399.00	85.74
1398.00	85.57
1397.00	85.40
1396.00	85.23
1395.00	85.07
1394.00	84.91
1393.00	84.75
1392.00	84.58
1391.00	84.39
1390.00	84.18
1389.00	83.94
1388.00	83.71
1387.00	83.50
1386.00	83.34
1385.00	83.21
1384.00	83.08
1383.00	82.96
1382.00	82.85
1381.00	82.75
1380.00	82.68
1379.00	82.65
1378.00	82.65
1377.00	82.68
1376.00	82.75
1375.00	82.86
1374.00	83.02
1373.00	83.21
1372.00	83.41
1371.00	83.61
1370.00	83.80
1369.00	84.00
1368.00	84.19
1367.00	84.37
1366.00	84.52
1365.00	84.64
1364.00	84.74
1363.00	84.87
1362.00	85.02
1361.00	85.21
1360.00	85.39
1359.00	85.56
1358.00	85.71
1357.00	85.86
1356.00	86.00
1355.00	86.13
1354.00	86.27
1353.00	86.40
1352.00	86.54
1351.00	86.68
1350.00	86.84
1349.00	87.01
1348.00	87.21
1347.00	87.42
1346.00	87.62
1345.00	87.81
1344.00	87.96
1343.00	88.08
1342.00	88.16
1341.00	88.21
1340.00	88.26
1339.00	88.33
1338.00	88.42
1337.00	88.52
1336.00	88.60
1335.00	88.67
1334.00	88.70
1333.00	88.72
1332.00	88.72
1331.00	88.72
1330.00	88.71
1329.00	88.70
1328.00	88.70
1327.00	88.69
1326.00	88.68
1325.00	88.66
1324.00	88.64
1323.00	88.62
1322.00	88.58
1321.00	88.54
1320.00	88.49
1319.00	88.45
1318.00	88.40
1317.00	88.36
1316.00	88.31
1315.00	88.27
1314.00	88.22
1313.00	88.17
1312.00	88.13
1311.00	88.10
1310.00	88.06
1309.00	88.02
1308.00	87.98
1307.00	87.95
1306.00	87.92
1305.00	87.89
1304.00	87.86
1303.00	87.84
1302.00	87.80
1301.00	87.77
1300.00	87.73
1299.00	87.68
1298.00	87.61
1297.00	87.54
1296.00	87.46
1295.00	87.36
1294.00	87.25
1293.00	87.11
1292.00	86.95
1291.00	86.77
1290.00	86.57
1289.00	86.36
1288.00	86.16
1287.00	85.97
1286.00	85.81
1285.00	85.66
1284.00	85.55
1283.00	85.48
1282.00	85.44
1281.00	85.46
1280.00	85.52
1279.00	85.63
1278.00	85.77
1277.00	85.94
1276.00	86.11
1275.00	86.28
1274.00	86.44
1273.00	86.61
1272.00	86.78
1271.00	86.96
1270.00	87.16
1269.00	87.36
1268.00	87.59
1267.00	87.82
1266.00	88.07
1265.00	88.31
1264.00	88.56
1263.00	88.79
1262.00	89.00
1261.00	89.18
1260.00	89.35
1259.00	89.48
1258.00	89.59
1257.00	89.67
1256.00	89.72
1255.00	89.75
1254.00	89.74
1253.00	89.71
1252.00	89.64
1251.00	89.54
1250.00	89.42
1249.00	89.26
1248.00	89.08
1247.00	88.87
1246.00	88.63
1245.00	88.37
1244.00	88.09
1243.00	87.79
1242.00	87.48
1241.00	87.15
1240.00	86.82
1239.00	86.47
1238.00	86.14
1237.00	85.81
1236.00	85.50
1235.00	85.21
1234.00	84.92
1233.00	84.63
1232.00	84.33
1231.00	84.03
1230.00	83.71
1229.00	83.38
1228.00	83.04
1227.00	82.68
1226.00	82.31
1225.00	81.93
1224.00	81.54
1223.00	81.13
1222.00	80.71
1221.00	80.28
1220.00	79.84
1219.00	79.39
1218.00	78.95
1217.00	78.51
1216.00	78.07
1215.00	77.63
1214.00	77.19
1213.00	76.75
1212.00	76.33
1211.00	75.92
1210.00	75.52
1209.00	75.14
1208.00	74.77
1207.00	74.42
1206.00	74.09
1205.00	73.78
1204.00	73.49
1203.00	73.23
1202.00	72.98
1201.00	72.76
1200.00	72.55
1199.00	72.36
1198.00	72.18
1197.00	72.01
1196.00	71.85
1195.00	71.70
1194.00	71.56
1193.00	71.43
1192.00	71.31
1191.00	71.20
1190.00	71.11
1189.00	71.04
1188.00	71.00
1187.00	71.00
1186.00	71.02
1185.00	71.08
1184.00	71.18
1183.00	71.31
1182.00	71.47
1181.00	71.66
1180.00	71.86
1179.00	72.07
1178.00	72.29
1177.00	72.51
1176.00	72.73
1175.00	72.94
1174.00	73.14
1173.00	73.31
1172.00	73.45
1171.00	73.55
1170.00	73.59
1169.00	73.58
1168.00	73.51
1167.00	73.38
1166.00	73.18
1165.00	72.93
1164.00	72.62
1163.00	72.24
1162.00	71.81
1161.00	71.32
1160.00	70.78
1159.00	70.21
1158.00	69.62
1157.00	69.03
1156.00	68.46
1155.00	67.94
1154.00	67.47
1153.00	67.08
1152.00	66.80
1151.00	66.65
1150.00	66.64
1149.00	66.78
1148.00	67.06
1147.00	67.46
1146.00	67.98
1145.00	68.58
1144.00	69.24
1143.00	69.93
1142.00	70.66
1141.00	71.40
1140.00	72.14
1139.00	72.89
1138.00	73.63
1137.00	74.36
1136.00	75.11
1135.00	75.89
1134.00	76.70
1133.00	77.56
1132.00	78.48
1131.00	79.44
1130.00	80.42
1129.00	81.42
1128.00	82.40
1127.00	83.35
1126.00	84.26
1125.00	85.13
1124.00	85.93
1123.00	86.67
1122.00	87.34
1121.00	87.95
1120.00	88.48
1119.00	88.96
1118.00	89.38
1117.00	89.76
1116.00	90.09
1115.00	90.38
1114.00	90.63
1113.00	90.86
1112.00	91.05
1111.00	91.21
1110.00	91.34
1109.00	91.43
1108.00	91.50
1107.00	91.52
1106.00	91.49
1105.00	91.42
1104.00	91.28
1103.00	91.07
1102.00	90.78
1101.00	90.39
1100.00	89.89
1099.00	89.27
1098.00	88.52
1097.00	87.64
1096.00	86.62
1095.00	85.50
1094.00	84.29
1093.00	83.02
1092.00	81.73
1091.00	80.44
1090.00	79.17
1089.00	77.96
1088.00	76.84
1087.00	75.87
1086.00	75.07
1085.00	74.49
1084.00	74.15
1083.00	74.05
1082.00	74.19
1081.00	74.55
1080.00	75.11
1079.00	75.85
1078.00	76.74
1077.00	77.72
1076.00	78.76
1075.00	79.82
1074.00	80.85
1073.00	81.83
1072.00	82.73
1071.00	83.55
1070.00	84.27
1069.00	84.88
1068.00	85.38
1067.00	85.74
1066.00	85.97
1065.00	86.06
1064.00	86.03
1063.00	85.88
1062.00	85.64
1061.00	85.33
1060.00	84.98
1059.00	84.62
1058.00	84.28
1057.00	84.00
1056.00	83.78
1055.00	83.64
1054.00	83.58
1053.00	83.59
1052.00	83.66
1051.00	83.80
1050.00	84.01
1049.00	84.28
1048.00	84.63
1047.00	85.06
1046.00	85.57
1045.00	86.14
1044.00	86.76
1043.00	87.42
1042.00	88.10
1041.00	88.78
1040.00	89.42
1039.00	90.03
1038.00	90.58
1037.00	91.06
1036.00	91.49
1035.00	91.86
1034.00	92.18
1033.00	92.45
1032.00	92.67
1031.00	92.86
1030.00	93.00
1029.00	93.11
1028.00	93.19
1027.00	93.24
1026.00	93.26
1025.00	93.26
1024.00	93.23
1023.00	93.16
1022.00	93.04
1021.00	92.88
1020.00	92.66
1019.00	92.38
1018.00	92.04
1017.00	91.62
1016.00	91.15
1015.00	90.61
1014.00	90.04
1013.00	89.44
1012.00	88.84
1011.00	88.24
1010.00	87.68
1009.00	87.16
1008.00	86.71
1007.00	86.36
1006.00	86.14
1005.00	86.06
1004.00	86.14
1003.00	86.36
1002.00	86.71
1001.00	87.17
1000.00	87.69
999.00	88.24
998.00	88.80
997.00	89.32
996.00	89.79
995.00	90.19
994.00	90.50
993.00	90.73
992.00	90.88
991.00	90.96
990.00	90.98
989.00	90.94
988.00	90.85
987.00	90.71
986.00	90.52
985.00	90.29
984.00	90.01
983.00	89.70
982.00	89.33
981.00	88.93
980.00	88.47
979.00	87.96
978.00	87.40
977.00	86.81
976.00	86.19
975.00	85.57
974.00	84.97
973.00	84.41
972.00	83.89
971.00	83.40
970.00	82.90
969.00	82.34
968.00	81.63
967.00	80.70
966.00	79.51
965.00	78.01
964.00	76.23
963.00	74.23
962.00	72.12
961.00	70.03
960.00	68.10
959.00	66.43
958.00	65.08
957.00	64.02
956.00	63.21
955.00	62.57
954.00	62.07
953.00	61.71
952.00	61.56
951.00	61.69
950.00	62.17
949.00	63.06
948.00	64.35
947.00	66.00
946.00	67.93
945.00	70.05
944.00	72.26
943.00	74.46
942.00	76.56
941.00	78.52
940.00	80.27
939.00	81.79
938.00	83.07
937.00	84.13
936.00	84.96
935.00	85.59
934.00	86.04
933.00	86.32
932.00	86.47
931.00	86.51
930.00	86.47
929.00	86.37
928.00	86.24
927.00	86.11
926.00	85.99
925.00	85.92
924.00	85.90
923.00	85.95
922.00	86.06
921.00	86.22
920.00	86.42
919.00	86.65
918.00	86.90
917.00	87.16
916.00	87.40
915.00	87.62
914.00	87.81
913.00	87.96
912.00	88.07
911.00	88.14
910.00	88.18
909.00	88.17
908.00	88.13
907.00	88.03
906.00	87.89
905.00	87.71
904.00	87.49
903.00	87.23
902.00	86.95
901.00	86.64
900.00	86.30
899.00	85.95
898.00	85.59
897.00	85.21
896.00	84.83
895.00	84.47
894.00	84.15
893.00	83.88
892.00	83.66
891.00	83.49
890.00	83.35
889.00	83.24
888.00	83.14
887.00	83.06
886.00	82.98
885.00	82.92
884.00	82.86
883.00	82.82
882.00	82.79
881.00	82.78
880.00	82.76
879.00	82.73
878.00	82.68
877.00	82.58
876.00	82.43
875.00	82.20
874.00	81.88
873.00	81.46
872.00	80.93
871.00	80.30
870.00	79.61
869.00	78.89
868.00	78.22
867.00	77.64
866.00	77.23
865.00	77.02
864.00	77.04
863.00	77.28
862.00	77.73
861.00	78.32
860.00	79.00
859.00	79.72
858.00	80.41
857.00	81.05
856.00	81.61
855.00	82.07
854.00	82.44
853.00	82.74
852.00	82.98
851.00	83.16
850.00	83.29
849.00	83.38
848.00	83.44
847.00	83.48
846.00	83.51
845.00	83.53
844.00	83.54
843.00	83.53
842.00	83.51
841.00	83.49
840.00	83.45
839.00	83.41
838.00	83.35
837.00	83.28
836.00	83.20
835.00	83.09
834.00	82.97
833.00	82.82
832.00	82.68
831.00	82.56
830.00	82.46
829.00	82.40
828.00	82.40
827.00	82.45
826.00	82.59
825.00	82.79
824.00	83.06
823.00	83.36
822.00	83.69
821.00	84.02
820.00	84.33
819.00	84.59
818.00	84.77
817.00	84.86
816.00	84.84
815.00	84.75
814.00	84.59
813.00	84.38
812.00	84.11
811.00	83.81
810.00	83.49
809.00	83.19
808.00	82.95
807.00	82.79
806.00	82.71
805.00	82.73
804.00	82.84
803.00	83.05
802.00	83.34
801.00	83.72
800.00	84.15
799.00	84.63
798.00	85.11
797.00	85.60
796.00	86.07
795.00	86.51
794.00	86.91
793.00	87.28
792.00	87.61
791.00	87.91
790.00	88.17
789.00	88.40
788.00	88.60
787.00	88.79
786.00	88.97
785.00	89.13
784.00	89.29
783.00	89.44
782.00	89.57
781.00	89.68
780.00	89.79
779.00	89.88
778.00	89.97
777.00	90.05
776.00	90.12
775.00	90.18
774.00	90.25
773.00	90.31
772.00	90.37
771.00	90.42
770.00	90.46
769.00	90.49
768.00	90.51
767.00	90.52
766.00	90.54
765.00	90.57
764.00	90.60
763.00	90.64
762.00	90.66
761.00	90.67
760.00	90.67
759.00	90.65
758.00	90.65
757.00	90.65
756.00	90.66
755.00	90.66
754.00	90.66
753.00	90.63
752.00	90.60
751.00	90.56
750.00	90.51
749.00	90.44
748.00	90.35
747.00	90.24
746.00	90.11
745.00	89.95
744.00	89.78
743.00	89.59
742.00	89.38
741.00	89.12
740.00	88.83
739.00	88.50
738.00	88.12
737.00	87.71
736.00	87.26
735.00	86.78
734.00	86.26
733.00	85.70
732.00	85.11
731.00	84.50
730.00	83.88
729.00	83.28
728.00	82.70
727.00	82.17
726.00	81.70
725.00	81.32
724.00	81.03
723.00	80.86
722.00	80.80
721.00	80.87
720.00	81.04
719.00	81.31
718.00	81.66
717.00	82.08
716.00	82.56
715.00	83.07
714.00	83.60
713.00	84.13
712.00	84.66
711.00	85.15
710.00	85.61
709.00	86.01
708.00	86.36
707.00	86.67
706.00	86.92
705.00	87.14
704.00	87.32
703.00	87.46
702.00	87.55
701.00	87.61
700.00	87.65
699.00	87.67
698.00	87.68
697.00	87.68
696.00	87.68
695.00	87.67
694.00	87.65
693.00	87.62
692.00	87.57
691.00	87.52
690.00	87.47
689.00	87.42
688.00	87.37
687.00	87.31
686.00	87.24
685.00	87.17
684.00	87.12
683.00	87.08
682.00	87.01
681.00	86.92
680.00	86.80
679.00	86.69
678.00	86.59
677.00	86.51
676.00	86.43
675.00	86.35
674.00	86.26
673.00	86.17
672.00	86.10
671.00	86.05
670.00	86.01
669.00	85.96
668.00	85.82
667.00	85.62
666.00	85.42
665.00	85.26
664.00	85.12
663.00	85.02
662.00	84.95
661.00	84.89
660.00	84.83
659.00	84.76
658.00	84.67
657.00	84.58
656.00	84.48
655.00	84.37
654.00	84.24
653.00	84.09
652.00	83.93
651.00	83.77
650.00	83.61
649.00	83.46
648.00	83.32
647.00	83.18
646.00	83.03
645.00	82.85
644.00	82.64
643.00	82.41
642.00	82.19
641.00	82.00
640.00	81.84
639.00	81.71
638.00	81.60
637.00	81.51
636.00	81.43
635.00	81.32
634.00	81.16
633.00	80.93
632.00	80.65
631.00	80.33
630.00	79.99
629.00	79.66
628.00	79.35
627.00	79.12
626.00	78.96
625.00	78.80
624.00	78.53
623.00	78.05
622.00	77.38
621.00	76.63
620.00	75.91
619.00	75.29
618.00	74.71
617.00	74.09
616.00	73.37
615.00	72.59
614.00	71.82
613.00	71.15
612.00	70.64
611.00	70.32
610.00	70.21
609.00	70.33
608.00	70.67
607.00	71.19
606.00	71.81
605.00	72.47
604.00	73.12
603.00	73.71
602.00	74.22
601.00	74.61
600.00	74.87
